SpectraSuite Datei
++++++++++++++++++++++++++++++++++++
Datum: Fri Dec 16 12:21:33 CET 2022
Benutzer: spektr
Dark-Spektrum vorhanden: Nein
Referenz-Spektrum vorhanden: Nein
Zahl der probierten Teilspektren: 1
Spektrometer: USB4F00406
Integrationszeit (usec): 100000 (USB4F00406)
Spektren Durchschnitt berechnet: 1 (USB4F00406)
Boxcar Glättung: 0 (USB4F00406)
Dunkelstromkorrektur: Nein (USB4F00406)
Puls/Lampe aktiviert: Nein (USB4F00406)
Correct for Detector Non-linearity: Nein (USB4F00406)
Streulichtkorrektur: Nein (USB4F00406)
Anzahl Pixel in verarbeitetem Spektrum: 3648
>>>>>Begin Processed Spectral Data<<<<<
345,69	1044,46
345,91	1044,46
346,12	1044,46
346,34	1103,86
346,55	1069,04
346,77	1114,10
346,98	1163,25
347,20	1153,01
347,41	1220,59
347,63	1163,25
347,84	1165,29
348,06	1241,07
348,27	1220,59
348,49	1114,10
348,70	1177,58
348,92	1130,48
349,13	1159,15
349,35	1236,97
349,56	1306,60
349,78	1386,47
349,99	1411,05
350,20	1390,57
350,42	1413,10
350,63	1421,29
350,85	1390,57
351,06	1437,67
351,28	1423,34
351,49	1390,57
351,71	1386,47
351,92	1394,67
352,14	1445,87
352,35	1398,76
352,57	1404,91
352,78	1480,68
353,00	1538,02
353,21	1425,39
353,43	1425,39
353,64	1409,00
353,85	1449,96
354,07	1482,73
354,28	1400,81
354,50	1511,40
354,71	1423,34
354,93	1454,06
355,14	1384,43
355,36	1423,34
355,57	1398,76
355,79	1413,10
356,00	1441,77
356,21	1460,20
356,43	1443,82
356,64	1421,29
356,86	1544,17
357,07	1411,05
357,29	1423,34
357,50	1392,62
357,72	1478,63
357,93	1423,34
358,14	1452,01
358,36	1406,95
358,57	1527,78
358,79	1396,71
359,00	1503,21
359,22	1484,78
359,43	1443,82
359,65	1499,11
359,86	1542,12
360,07	1480,68
360,29	1404,91
360,50	1431,53
360,72	1542,12
360,93	1515,50
361,14	1415,15
361,36	1583,08
361,57	1515,50
361,79	1501,16
362,00	1601,51
362,22	1560,55
362,43	1621,99
362,64	1572,84
362,86	1527,78
363,07	1495,02
363,29	1484,78
363,50	1474,54
363,72	1640,42
363,93	1560,55
364,14	1583,08
364,36	1548,26
364,57	1613,80
364,79	1572,84
365,00	1638,38
365,21	1564,65
365,43	1589,22
365,64	1638,38
365,86	1486,83
366,07	1476,59
366,28	1544,17
366,50	1617,90
366,71	1601,51
366,93	1601,51
367,14	1572,84
367,35	1726,44
367,57	1601,51
367,78	1667,05
367,99	1628,14
368,21	1621,99
368,42	1640,42
368,64	1658,85
368,85	1597,42
369,06	1591,27
369,28	1601,51
369,49	1601,51
369,71	1613,80
369,92	1585,13
370,13	1624,04
370,35	1626,09
370,56	1572,84
370,77	1593,32
370,99	1589,22
371,20	1548,26
371,42	1574,89
371,63	1535,98
371,84	1548,26
372,06	1572,84
372,27	1613,80
372,48	1533,93
372,70	1685,48
372,91	1695,72
373,12	1638,38
373,34	1662,95
373,55	1654,76
373,77	1638,38
373,98	1712,10
374,19	1621,99
374,41	1716,20
374,62	1710,05
374,83	1697,77
375,05	1697,77
375,26	1708,01
375,47	1773,54
375,69	1691,62
375,90	1767,40
376,11	1783,78
376,33	1798,12
376,54	1712,10
376,75	1837,03
376,97	1728,49
377,18	1773,54
377,40	1839,08
377,61	1746,92
377,82	1654,76
378,04	1814,50
378,25	1794,02
378,46	1710,05
378,68	1771,49
378,89	1773,54
379,10	1761,25
379,32	1785,83
379,53	1828,84
379,74	1761,25
379,96	1894,37
380,17	1822,69
380,38	1912,80
380,59	1763,30
380,81	1873,89
381,02	1728,49
381,23	1757,16
381,45	1863,65
381,66	1869,80
381,87	1791,97
382,09	1824,74
382,30	1798,12
382,51	1877,99
382,73	1837,03
382,94	1802,21
383,15	1847,27
383,37	1824,74
383,58	1861,60
383,79	1843,17
384,00	1890,28
384,22	1820,64
384,43	1869,80
384,64	1857,51
384,86	1933,28
385,07	1875,94
385,28	1851,36
385,50	1943,52
385,71	1949,67
385,92	1900,52
386,13	1949,67
386,35	1902,56
386,56	2047,97
386,77	1908,71
386,99	1966,05
387,20	1966,05
387,41	1927,14
387,63	1966,05
387,84	1984,48
388,05	1914,85
388,26	2015,20
388,48	2025,44
388,69	2047,97
388,90	2109,41
389,11	1966,05
389,33	2000,87
389,54	2109,41
389,75	2068,45
389,97	2015,20
390,18	2056,16
390,39	2146,27
390,60	1994,72
390,82	2045,92
391,03	1961,95
391,24	2029,54
391,45	2072,54
391,67	2121,70
391,88	2101,22
392,09	2131,94
392,31	2060,26
392,52	2140,13
392,73	2088,93
392,94	2072,54
393,16	2064,35
393,37	2050,02
393,58	2176,99
393,79	2183,13
394,01	2090,98
394,22	2138,08
394,43	2252,77
394,64	2193,37
394,86	2101,22
395,07	2066,40
395,28	2172,89
395,49	2207,71
395,71	2228,19
395,92	2207,71
396,13	2121,70
396,34	2273,25
396,56	2254,81
396,77	2252,77
396,98	2318,30
397,19	2293,72
397,40	2201,57
397,62	2228,19
397,83	2392,03
398,04	2273,25
398,25	2275,29
398,47	2289,63
398,68	2246,62
398,89	2203,61
399,10	2213,85
399,32	2379,74
399,53	2230,24
399,74	2258,91
399,95	2310,11
400,16	2445,27
400,38	2353,12
400,59	2361,31
400,80	2404,32
401,01	2445,27
401,22	2371,55
401,44	2629,59
401,65	2369,50
401,86	2342,88
402,07	2387,93
402,29	2351,07
402,50	2504,67
402,71	2445,27
402,92	2412,51
403,13	2441,18
403,35	2377,69
403,56	2451,42
403,77	2435,03
403,98	2494,43
404,19	2506,71
404,41	2498,52
404,62	2387,93
404,83	2463,71
405,04	2547,67
405,25	2533,34
405,47	2492,38
405,68	2469,85
405,89	2572,25
406,10	2439,13
406,31	2572,25
406,52	2625,50
406,74	2672,60
406,95	2510,81
407,16	2654,17
407,37	2658,26
407,58	2602,97
407,80	2697,17
408,01	2596,82
408,22	2740,18
408,43	2621,40
408,64	2711,51
408,85	2715,61
409,07	2633,69
409,28	2697,17
409,49	2707,41
409,70	2740,18
409,91	2734,04
410,12	2666,46
410,34	2717,65
410,55	2762,71
410,76	2670,55
410,97	2871,25
411,18	2813,91
411,39	2797,53
411,61	2836,44
411,82	2875,35
412,03	2797,53
412,24	2824,15
412,45	2938,84
412,66	2805,72
412,87	2947,03
413,09	2858,96
413,30	2963,41
413,51	3012,56
413,72	2867,16
413,93	2768,85
414,14	2846,68
414,35	2922,45
414,57	2895,83
414,78	3008,47
414,99	2983,89
415,20	2863,06
415,41	3059,67
415,62	3010,51
415,83	3002,32
416,05	2959,31
416,26	3016,66
416,47	3084,24
416,68	3088,34
416,89	3098,58
417,10	3004,37
417,31	3127,25
417,52	3098,58
417,74	3010,51
417,95	3192,78
418,16	3131,34
418,37	3145,68
418,58	3147,73
418,79	3147,73
419,00	3108,82
419,21	3096,53
419,43	3104,72
419,64	3182,54
419,85	3311,57
420,06	3217,36
420,27	3182,54
420,48	3323,85
420,69	3278,80
420,90	3260,37
421,11	3286,99
421,33	3227,60
421,54	3270,61
421,75	3401,68
421,96	3426,25
422,17	3377,10
422,38	3475,40
422,59	3409,87
422,80	3397,58
423,01	3487,69
423,22	3387,34
423,43	3416,01
423,65	3246,03
423,86	3522,51
424,07	3473,36
424,28	3467,21
424,49	3454,92
424,70	3514,31
424,91	3481,55
425,12	3428,30
425,33	3626,95
425,54	3444,68
425,75	3555,27
425,96	3633,10
426,18	3575,75
426,39	3608,52
426,60	3624,90
426,81	3667,91
427,02	3751,88
427,23	3766,21
427,44	3796,93
427,65	3694,54
427,86	3555,27
428,07	3669,96
428,28	3874,76
428,49	3862,47
428,70	3747,78
428,91	3764,17
429,13	3911,62
429,34	3903,43
429,55	3893,19
429,76	3925,96
429,97	3919,81
430,18	4030,40
430,39	3985,35
430,60	4011,97
430,81	4054,98
431,02	4085,70
431,23	4145,09
431,44	3993,54
431,65	4095,94
431,86	4218,82
432,07	4237,25
432,28	4261,82
432,49	4292,54
432,70	4173,76
432,91	4280,25
433,12	4227,01
433,33	4331,45
433,55	4325,31
433,76	4454,33
433,97	4204,48
434,18	4491,20
434,39	4339,65
434,60	4349,89
434,81	4294,59
435,02	4552,63
435,23	4640,70
435,44	4454,33
435,65	4480,96
435,86	4503,48
436,07	4659,13
436,28	4292,54
436,49	4730,81
436,70	4691,90
436,91	4751,29
437,12	4587,45
437,33	4773,82
437,54	4829,11
437,75	4722,62
437,96	4726,71
438,17	4825,01
438,38	4849,59
438,59	4911,03
438,80	4888,50
439,01	5029,81
439,22	4956,08
439,43	4988,85
439,64	4927,41
439,85	5019,57
440,06	4980,66
440,27	4915,12
440,48	4933,56
440,69	5142,45
440,90	5146,55
441,11	4972,47
441,32	4913,08
441,53	5144,50
441,74	5111,73
441,95	5199,79
442,16	5287,86
442,37	5339,05
442,58	5212,08
442,79	5275,57
443,00	5300,14
443,21	5255,09
443,42	5267,38
443,63	5345,20
443,84	5271,47
444,05	5545,90
444,26	5435,31
444,47	5377,97
444,68	5474,22
444,89	5359,53
445,10	5496,75
445,31	5306,29
445,52	5455,79
445,73	5517,23
445,94	5277,62
446,14	5402,54
446,35	5687,21
446,56	5443,50
446,77	5506,99
446,98	5601,19
447,19	5476,27
447,40	5463,98
447,61	5541,80
447,82	5713,83
448,03	5652,39
448,24	5781,42
448,45	5818,28
448,66	5672,87
448,87	5935,01
449,08	6004,64
449,29	5722,02
449,50	5863,33
449,71	5722,02
449,92	5898,15
450,13	5791,66
450,33	5724,07
450,54	5611,43
450,75	5781,42
450,96	5853,09
451,17	6066,08
451,38	6053,80
451,59	5951,40
451,80	5926,82
452,01	6119,33
452,22	6195,11
452,43	5787,56
452,64	6072,23
452,85	5988,26
453,06	6188,96
453,27	6424,48
453,47	6082,47
453,68	6000,55
453,89	6035,36
454,10	6242,21
454,31	6504,35
454,52	6178,72
454,73	6377,37
454,94	6279,07
455,15	6324,13
455,36	6571,93
455,57	6373,28
455,78	6750,10
455,98	6594,46
456,19	6451,10
456,40	6637,47
456,61	6598,56
456,82	6795,16
457,03	6657,95
457,24	6729,63
457,45	6397,85
457,66	6582,17
457,87	6956,95
458,07	6979,48
458,28	6678,43
458,49	7010,20
458,70	6860,70
458,91	6985,62
459,12	7163,79
459,33	7384,98
459,54	7061,40
459,75	7171,99
459,95	7057,30
460,16	7208,85
460,37	7432,08
460,58	7194,51
460,79	7470,99
461,00	7288,72
461,21	7468,94
461,42	7622,54
461,62	7450,51
461,83	7630,73
462,04	7444,37
462,25	7628,68
462,46	7731,08
462,67	7849,86
462,88	7712,65
463,09	8138,63
463,29	7575,44
463,50	7767,95
463,71	7999,37
463,92	7933,83
464,13	7905,16
464,34	7821,19
464,55	8302,47
464,75	8521,60
464,96	8249,22
465,17	8314,75
465,38	8175,49
465,59	8370,05
465,80	8331,14
466,01	8527,74
466,21	8601,47
466,42	8912,76
466,63	8720,25
466,84	8804,22
467,05	8775,55
467,26	8519,55
467,46	8585,08
467,67	8726,39
467,88	8949,62
468,09	9402,22
468,30	9146,23
468,51	9207,67
468,71	8970,10
468,92	9637,74
469,13	9510,77
469,34	9764,72
469,55	9584,49
469,76	9797,48
469,96	9758,57
470,17	10078,05
470,38	10108,77
470,59	9785,19
470,80	9969,51
471,01	9793,39
471,21	10436,45
471,42	10514,27
471,63	10409,83
471,84	10528,61
472,05	10409,83
472,25	10884,95
472,46	10696,54
472,67	10643,29
472,88	10737,50
473,09	11026,26
473,29	11263,83
473,50	11478,86
473,71	11546,45
473,92	11622,22
474,13	11761,48
474,34	11777,87
474,54	11898,70
474,75	11741,00
474,96	12171,08
475,17	11515,73
475,37	12158,79
475,58	12324,68
475,79	12678,97
476,00	12640,06
476,21	12635,97
476,41	12595,01
476,62	12840,76
476,83	12982,07
477,04	12992,31
477,25	13305,65
477,45	13479,73
477,66	13666,10
477,87	13770,54
478,08	13522,74
478,28	13600,56
478,49	13879,08
478,70	14036,78
478,91	14126,89
479,12	14274,34
479,32	14866,21
479,53	14640,93
479,74	14667,55
479,95	15419,16
480,15	15019,80
480,36	14728,99
480,57	14810,91
480,78	15034,14
480,98	15449,88
481,19	15558,42
481,40	15449,88
481,61	16127,75
481,81	15568,66
482,02	16080,65
482,23	16238,34
482,44	16291,59
482,64	16254,73
482,85	16637,70
483,06	16733,95
483,27	16844,54
483,47	17174,27
483,68	16822,02
483,89	17151,74
484,10	17204,99
484,30	17164,03
484,51	17346,30
484,72	17680,11
484,93	17901,29
485,13	17936,11
485,34	18257,64
485,55	18259,69
485,76	17917,68
485,96	18605,80
486,17	18982,62
486,38	18843,36
486,59	18978,53
486,79	19037,92
487,00	19031,77
487,21	19365,59
487,41	19164,89
487,62	19347,16
487,83	19420,89
488,04	19599,06
488,24	19766,99
488,45	20115,15
488,66	20004,56
488,86	20109,01
489,07	20285,13
489,28	20758,21
489,49	20756,16
489,69	20426,44
489,90	20856,51
490,11	20881,09
490,31	20870,85
490,52	21110,46
490,73	21139,13
490,93	21520,06
491,14	21573,30
491,35	21923,51
491,56	21790,39
491,76	21714,61
491,97	21888,69
492,18	22056,62
492,38	22363,82
492,59	22183,60
492,80	22259,37
493,00	22617,77
493,21	22638,25
493,42	22525,61
493,62	23051,94
493,83	22939,30
494,04	22967,97
494,25	23352,99
494,45	23459,48
494,66	23537,30
494,87	23539,35
495,07	23336,60
495,28	23903,89
495,49	23582,36
495,69	23785,11
495,90	23963,28
496,11	24254,09
496,31	24051,34
496,52	24338,06
496,73	24200,85
496,93	24575,62
497,14	24839,81
497,35	24737,41
497,55	24624,78
497,76	25034,37
497,97	24991,36
498,17	25579,13
498,38	25806,45
498,59	25300,61
498,79	25446,01
499,00	25706,10
499,20	25835,13
499,41	25890,42
499,62	25962,10
499,82	26277,49
500,03	25753,21
500,24	26105,46
500,44	26222,19
500,65	26269,30
500,86	26371,69
501,06	26691,18
501,27	26912,36
501,48	26924,65
501,68	26826,34
501,89	27373,15
502,09	26994,28
502,30	27129,44
502,51	27076,19
502,71	27156,07
502,92	27657,82
503,13	27237,98
503,33	27512,41
503,54	27516,51
503,74	27997,78
503,95	28153,43
504,16	27993,68
504,36	27866,71
504,57	28016,21
504,78	27979,35
504,98	28225,11
505,19	28456,53
505,39	28307,02
505,60	28388,94
505,81	28548,68
506,01	28980,81
506,22	28460,62
506,42	28989,00
506,63	29187,65
506,84	29165,12
507,04	29249,09
507,25	29232,71
507,45	29523,52
507,66	29204,03
507,87	29537,85
508,07	29525,57
508,28	29947,45
508,48	29681,21
508,69	29748,79
508,90	29869,62
509,10	30015,03
509,31	30039,61
509,51	29935,16
509,72	30174,77
509,93	30090,80
510,13	30369,33
510,34	30551,60
510,54	30621,23
510,75	30508,59
510,95	30410,29
511,16	30535,21
511,37	30498,35
511,57	30477,87
511,78	30662,19
511,98	30971,43
512,19	30928,42
512,39	31180,32
512,60	31315,49
512,81	31063,59
513,01	31424,03
513,22	31063,59
513,42	31411,74
513,63	31581,73
513,83	31508,00
514,04	31798,81
514,25	31868,44
514,45	31966,74
514,66	31901,21
514,86	31819,29
515,07	31643,17
515,27	32073,24
515,48	32015,90
515,68	32331,28
515,89	32376,34
516,09	32290,32
516,30	32654,86
516,51	32474,64
516,71	32736,78
516,92	32951,82
517,12	32863,75
517,33	32712,20
517,53	32622,09
517,74	33603,07
517,94	32818,70
518,15	32962,06
518,35	33306,12
518,56	32865,80
518,76	33191,43
518,97	32929,29
519,18	33330,69
519,38	33250,82
519,59	33437,19
519,79	33760,76
520,00	33734,14
520,20	34053,62
520,41	33746,43
520,61	34000,38
520,82	34027,00
521,02	34522,61
521,23	34076,15
521,43	34160,12
521,64	34055,67
521,84	34584,05
522,05	34770,41
522,25	34713,07
522,46	34670,06
522,66	34948,59
522,87	34878,96
523,07	34598,38
523,28	34823,66
523,48	34663,92
523,69	35522,02
523,89	34893,29
524,10	34938,35
524,30	35421,67
524,51	35624,42
524,71	35311,08
524,92	35728,86
525,12	35657,18
525,33	35485,15
525,53	35628,51
525,74	35341,80
525,94	35204,58
526,15	35814,88
526,35	36120,02
526,56	36468,18
526,76	35974,62
526,97	36439,51
527,17	36484,56
527,38	36191,70
527,58	36423,12
527,78	36193,75
527,99	36169,18
528,19	36394,45
528,40	36636,11
528,60	36486,61
528,81	36447,70
529,01	36566,48
529,22	36873,68
529,42	37012,94
529,63	37320,13
529,83	37055,95
530,04	37148,11
530,24	37596,61
530,44	37101,00
530,65	37397,96
530,85	37612,99
531,06	37404,10
531,26	37275,08
531,47	37500,36
531,67	37750,21
531,88	37770,69
532,08	37955,00
532,29	37699,01
532,49	38041,02
532,69	38430,13
532,90	37909,95
533,10	37928,38
533,31	38634,93
533,51	38661,55
533,72	38340,02
533,92	38555,06
534,12	38643,12
534,33	38776,24
534,53	39114,16
534,74	39022,00
534,94	39347,62
535,15	39482,79
535,35	39372,20
535,55	39404,97
535,76	39609,76
535,96	39830,94
536,17	39304,62
536,37	40088,99
536,58	39867,81
536,78	40007,07
536,98	40377,75
537,19	40099,23
537,39	40641,94
537,60	40220,06
537,80	40189,34
538,00	40607,12
538,21	40496,53
538,41	41035,15
538,62	40625,56
538,82	41045,39
539,02	40809,87
539,23	41452,94
539,43	41231,75
539,64	41108,88
539,84	41872,77
540,04	41524,61
540,25	41975,17
540,45	41946,50
540,66	42161,53
540,86	42284,41
541,06	41813,38
541,27	42167,68
541,47	42022,27
541,68	42544,50
541,88	42231,16
542,08	42292,60
542,29	42141,05
542,49	42397,05
542,69	42511,74
542,90	42968,43
543,10	42829,17
543,31	43439,47
543,51	42863,99
543,71	43300,20
543,92	43834,72
544,12	43351,40
544,32	43212,14
544,53	43656,55
544,73	44053,86
544,93	43769,19
545,14	44481,88
545,34	44389,72
545,55	43668,84
545,75	43994,46
545,95	44285,28
546,16	44744,02
546,36	44512,60
546,56	44514,65
546,77	44498,26
546,97	45462,86
547,17	44936,53
547,38	44649,81
547,58	45712,71
547,78	44936,53
547,99	45278,54
548,19	45741,38
548,39	45178,19
548,60	46148,93
548,80	46001,47
549,00	45636,94
549,21	46122,30
549,41	45819,20
549,61	45913,41
549,82	46103,87
550,02	46085,44
550,22	46075,20
550,43	46179,65
550,63	45905,22
550,83	46953,78
551,04	46462,27
551,24	46722,36
551,44	47187,25
551,65	46966,07
551,85	47179,06
552,05	46636,34
552,26	46943,54
552,46	46847,29
552,66	47158,58
552,87	47697,19
553,07	47461,68
553,27	47736,10
553,47	47529,26
553,68	47557,93
553,88	47140,14
554,08	47090,99
554,29	47488,30
554,49	47430,96
554,69	48172,32
554,90	48207,14
555,10	48362,78
555,30	48850,20
555,50	48295,20
555,71	48422,17
555,91	48149,79
556,11	48446,75
556,32	48332,06
556,52	48522,52
556,72	48416,03
556,92	48387,36
557,13	48278,82
557,33	49026,32
557,53	47936,80
557,74	48835,86
557,94	48432,41
558,14	48780,57
558,34	48461,08
558,55	48313,63
558,75	48817,43
558,95	48887,06
559,16	48721,18
559,36	49319,18
559,56	48645,40
559,76	49302,80
559,97	49327,38
560,17	49640,71
560,37	49132,82
560,57	49315,09
560,78	49448,21
560,98	49136,91
561,18	49407,25
561,38	50160,90
561,59	49829,13
561,79	49079,57
561,99	49247,50
562,19	49659,15
562,40	49585,42
562,60	49403,15
562,80	49739,02
563,00	49767,69
563,21	49607,95
563,41	50087,17
563,61	49562,89
563,81	49505,55
564,02	50005,25
564,22	49583,37
564,42	50158,85
564,62	50547,96
564,83	50357,50
565,03	50054,40
565,23	50777,34
565,43	50582,78
565,63	50922,74
565,84	50801,91
566,04	50523,39
566,24	50353,41
566,44	50365,70
566,65	50150,66
566,85	50189,57
567,05	50433,28
567,25	50697,47
567,45	50975,99
567,66	50609,40
567,86	51057,91
568,06	50894,07
568,26	50838,78
568,46	50748,67
568,67	50582,78
568,87	50220,29
569,07	50685,18
569,27	51094,77
569,47	50939,13
569,68	51016,95
569,88	51182,84
570,08	51039,48
570,28	51463,41
570,48	51309,81
570,69	51246,32
570,89	51465,45
571,09	51088,63
571,29	50863,35
571,49	51203,31
571,70	50947,32
571,90	51410,16
572,10	51444,98
572,30	51606,76
572,50	51504,37
572,71	51461,36
572,91	50928,89
573,11	51965,16
573,31	51715,31
573,51	52208,87
573,71	51770,60
573,92	51494,13
574,12	51676,40
574,32	51614,96
574,52	51528,94
574,72	52008,17
574,92	51680,49
575,13	51930,34
575,33	52284,64
575,53	52266,21
575,73	52040,93
575,93	52339,94
576,13	53310,67
576,33	52679,90
576,54	52845,79
576,74	52559,07
576,94	52878,55
577,14	52995,29
577,34	53200,08
577,54	52643,04
577,75	52724,96
577,95	52313,31
578,15	52516,06
578,35	52448,48
578,55	52901,08
578,75	52489,44
578,95	52829,40
579,16	52899,03
579,36	52952,28
579,56	52978,90
579,76	52911,32
579,96	52991,19
580,16	53050,58
580,36	53013,72
580,56	53202,13
580,77	53523,66
580,97	52980,95
581,17	53703,88
581,37	53863,63
581,57	53863,63
581,77	53325,01
581,97	54129,86
582,17	53312,72
582,38	53744,84
582,58	53937,35
582,78	53621,97
582,98	53396,69
583,18	53267,67
583,38	54654,14
583,58	53626,06
583,78	54396,10
583,98	53896,39
584,18	53689,55
584,39	54256,84
584,59	54037,70
584,79	54088,90
584,99	54510,78
585,19	54576,32
585,39	53873,87
585,59	54023,37
585,79	54666,43
585,99	53939,40
586,19	54129,86
586,39	54344,90
586,60	54230,21
586,80	54400,19
587,00	54873,27
587,20	55274,68
587,40	54981,82
587,60	54936,76
587,80	54635,71
588,00	54613,18
588,20	54594,75
588,40	54711,49
588,60	54772,92
588,80	54815,93
589,00	54953,15
589,21	55024,82
589,41	55026,87
589,61	54863,03
589,81	54930,62
590,01	54727,87
590,21	55069,88
590,41	55678,13
590,61	55456,95
590,81	55993,51
591,01	55528,62
591,21	55528,62
591,41	55348,40
591,61	55784,62
591,81	56063,14
592,01	56204,45
592,21	56353,96
592,41	56190,12
592,61	56128,68
592,82	56497,31
593,02	56882,33
593,22	56685,73
593,42	56366,24
593,62	56083,62
593,82	56751,26
594,02	56509,60
594,22	56485,03
594,42	56538,27
594,62	56499,36
594,82	56542,37
595,02	57275,54
595,22	57111,70
595,42	56652,96
595,62	57332,89
595,82	57885,84
596,02	57185,43
596,22	57623,70
596,42	56949,92
596,62	57574,55
596,82	57619,60
597,02	57570,45
597,22	58590,34
597,42	58109,07
597,62	57140,38
597,82	57605,26
598,02	57842,83
598,22	58397,83
598,42	58782,85
598,62	58612,87
598,82	58791,04
599,02	58840,19
599,22	58602,63
599,42	59178,10
599,62	58858,62
599,82	59360,37
600,02	59208,82
600,22	59208,82
600,42	58580,10
600,62	58328,20
600,82	58762,37
601,02	59114,62
601,22	59331,70
601,42	58932,35
601,62	59333,75
601,82	59055,23
602,02	59143,29
602,22	59389,05
602,42	59686,00
602,62	59372,66
602,82	59640,95
603,02	59501,68
603,22	59815,02
603,42	60011,63
603,62	60312,68
603,82	60597,35
604,02	59716,72
604,22	59374,71
604,42	60427,37
604,62	60331,11
604,82	60101,74
605,02	60421,22
605,21	60351,59
605,41	60548,20
605,61	60626,02
605,81	60277,86
606,01	60726,37
606,21	61033,56
606,41	61221,98
606,61	61518,93
606,81	60847,20
607,01	61066,33
607,21	61203,55
607,41	61103,20
607,61	60836,96
607,81	61095,00
608,01	61183,07
608,21	61424,73
608,41	61283,42
608,61	61492,31
608,80	62461,00
609,00	61572,18
609,20	61625,43
609,40	61684,82
609,60	61914,19
609,80	61756,50
610,00	61510,74
610,20	61238,36
610,40	61822,03
610,60	61529,17
610,80	61455,45
611,00	61805,65
611,20	61985,87
611,39	61709,39
611,59	61371,48
611,79	62106,70
611,99	61541,46
612,19	61940,81
612,39	61731,92
612,59	61903,95
612,79	61609,04
612,99	61262,94
613,19	61920,34
613,38	62239,82
613,58	62254,15
613,78	62213,19
613,98	62581,83
614,18	62485,57
614,38	62428,23
614,58	62010,45
614,78	62665,80
614,98	62319,69
615,18	62131,28
615,37	61801,55
615,57	62227,53
615,77	62403,66
615,97	61871,18
616,17	61961,29
616,37	62303,31
616,57	62350,41
616,77	61731,92
616,96	62594,12
617,16	62776,39
617,36	62157,90
617,56	62356,55
617,76	62659,65
617,96	62737,47
618,16	62178,38
618,35	62475,33
618,55	62497,86
618,75	62508,10
618,95	62829,63
619,15	62043,21
619,35	63368,25
619,55	62807,11
619,75	62483,53
619,94	62057,55
620,14	62461,00
620,34	62633,03
620,54	62487,62
620,74	62592,07
620,94	63036,48
621,13	62764,10
621,33	63138,88
621,53	62579,78
621,73	62499,91
621,93	62815,30
622,13	62424,14
622,32	63261,75
622,52	62719,04
622,72	62878,78
622,92	62504,01
623,12	62850,11
623,32	62735,43
623,51	62882,88
623,71	63241,28
623,91	62501,96
624,11	62510,15
624,31	62108,75
624,51	62929,98
624,70	62395,46
624,90	62573,64
625,10	62121,04
625,30	62858,30
625,50	62688,32
625,69	62772,29
625,89	62377,03
626,09	62350,41
626,29	62420,04
626,49	62395,46
626,68	62977,09
626,88	62209,10
627,08	63059,01
627,28	62655,56
627,48	62864,45
627,67	63196,22
627,87	62243,91
628,07	63165,50
628,27	62637,12
628,47	62532,68
628,66	62520,39
628,86	62569,54
629,06	62671,94
629,26	62661,70
629,46	62354,50
629,65	62170,19
629,85	62645,32
630,05	62479,43
630,25	62669,89
630,45	62753,86
630,64	62829,63
630,84	62372,94
631,04	62821,44
631,24	63145,02
631,43	62624,84
631,63	62485,57
631,83	63108,16
632,03	62426,18
632,22	62659,65
632,42	62809,15
632,62	62415,94
632,82	62760,00
633,01	62760,00
633,21	63587,38
633,41	63452,22
633,61	63040,57
633,81	63112,25
634,00	63140,92
634,20	63269,95
634,40	62950,46
634,60	63005,76
634,79	63038,53
634,99	63104,06
635,19	62764,10
635,38	62829,63
635,58	62897,22
635,78	62850,11
635,98	63321,15
636,17	63308,86
636,37	63188,03
636,57	63071,29
636,77	62301,26
636,96	62387,27
637,16	63079,49
637,36	62829,63
637,56	63065,15
637,75	63134,78
637,95	62637,12
638,15	62735,43
638,34	62544,97
638,54	62444,62
638,74	62626,88
638,94	62667,84
639,13	62825,54
639,33	62862,40
639,53	63370,30
639,72	63306,81
639,92	63288,38
640,12	63749,17
640,32	63616,05
640,51	63661,11
640,71	63173,69
640,91	62874,69
641,10	63579,19
641,30	63231,04
641,50	63271,99
641,69	62940,22
641,89	63396,92
642,09	62944,32
642,29	63513,65
642,48	63216,70
642,68	62897,22
642,88	63081,53
643,07	63237,18
643,27	63407,16
643,47	62790,72
643,66	63251,51
643,86	62354,50
644,06	62985,28
644,25	63028,29
644,45	62989,37
644,65	63095,87
644,84	62565,45
645,04	63114,30
645,24	63018,05
645,43	63798,32
645,63	63464,50
645,83	63509,56
646,02	62794,82
646,22	62884,93
646,42	63075,39
646,61	63743,03
646,81	63700,02
647,01	63964,21
647,20	63591,48
647,40	63261,75
647,60	63497,27
647,79	62919,74
647,99	64134,19
648,19	63198,27
648,38	63030,33
648,58	63423,54
648,78	63343,67
648,97	62860,35
649,17	63300,67
649,36	63984,69
649,56	63575,09
649,76	63960,11
649,95	62843,97
650,15	62655,56
650,35	62663,75
650,54	62567,49
650,74	63122,49
650,93	63546,42
651,13	63523,89
651,33	63509,56
651,52	63493,18
651,72	63816,75
651,92	63935,54
652,11	64023,60
652,31	63779,89
652,50	63718,45
652,70	63341,63
652,90	63587,38
653,09	63245,37
653,29	63427,64
653,49	63595,57
653,68	63933,49
653,88	64033,84
654,07	64169,00
654,27	63648,82
654,47	63614,01
654,66	63448,12
654,86	63251,51
655,05	63632,44
655,25	63720,50
655,45	64486,44
655,64	63603,77
655,84	64697,38
656,03	63867,95
656,23	63935,54
656,42	63947,82
656,62	63810,61
656,82	63976,50
657,01	64009,26
657,21	64042,03
657,40	64408,62
657,60	64304,17
657,80	64224,30
657,99	64246,83
658,19	64330,79
658,38	64189,48
658,58	64443,43
658,77	63937,58
658,97	64244,78
659,17	64152,62
659,36	64212,01
659,56	64136,24
659,75	64109,61
659,95	64232,49
660,14	64209,96
660,34	64091,18
660,53	64343,08
660,73	63951,92
660,93	64107,57
661,12	64054,32
661,32	64126,00
661,51	64439,34
661,71	64101,42
661,90	64816,16
662,10	64570,41
662,29	65080,35
662,49	64719,91
662,68	64597,03
662,88	64529,45
663,08	64431,14
663,27	64791,59
663,47	64128,05
663,66	65045,54
663,86	65029,15
664,05	65037,34
664,25	64730,15
664,44	64697,38
664,64	64445,48
664,83	64924,71
665,03	64865,31
665,22	64603,17
665,42	64820,26
665,61	64517,16
665,81	64349,23
666,00	64574,50
666,20	64703,52
666,39	64629,80
666,59	64836,64
666,78	65100,83
666,98	64920,61
667,17	65041,44
667,37	64322,60
667,56	64212,01
667,76	64939,04
667,95	64312,36
668,15	65090,59
668,34	64816,16
668,54	64928,80
668,73	64990,24
668,93	64744,48
669,12	65342,49
669,32	65535,00
669,51	64842,79
669,71	64920,61
669,90	65188,89
670,10	64900,13
670,29	65188,89
670,49	64822,31
670,68	64287,79
670,88	65180,70
671,07	64900,13
671,27	64838,69
671,46	65303,58
671,66	65289,24
671,85	65410,07
672,05	65141,79
672,24	64812,07
672,44	64771,11
672,63	65319,96
672,83	65369,11
673,02	64711,72
673,21	65119,26
673,41	64998,43
673,60	65070,11
673,80	64660,52
673,99	64402,47
674,19	64644,13
674,38	64103,47
674,58	64508,97
674,77	64588,84
674,97	64095,28
675,16	64205,87
675,35	63890,48
675,55	64095,28
675,74	64869,41
675,94	65039,39
676,13	65418,27
676,33	64883,75
676,52	65188,89
676,71	65535,00
676,91	65213,47
677,10	64640,04
677,30	64969,76
677,49	64271,40
677,69	64199,72
677,88	64099,37
678,07	64771,11
678,27	64875,55
678,46	65096,73
678,66	64963,62
678,85	65074,21
679,05	65373,21
679,24	65152,03
679,43	64459,82
679,63	64562,21
679,82	64941,09
680,02	64500,78
680,21	64918,56
680,40	65192,99
680,60	64869,41
680,79	65047,58
680,99	64615,46
681,18	64488,49
681,37	64425,00
681,57	64148,53
681,76	64554,02
681,96	64377,90
682,15	64891,94
682,34	64873,51
682,54	64447,53
682,73	64291,88
682,93	64435,24
683,12	64128,05
683,31	65256,48
683,51	64549,93
683,70	64250,92
683,89	64594,98
684,09	64601,13
684,28	64011,31
684,48	64396,33
684,67	64889,89
684,86	64035,89
685,06	64476,20
685,25	64037,93
685,44	64670,76
685,64	64246,83
685,83	64926,75
686,03	64132,14
686,22	64105,52
686,41	64365,61
686,61	64115,76
686,80	63738,93
686,99	63960,11
687,19	63904,82
687,38	63523,89
687,57	63953,97
687,77	63142,97
687,96	63448,12
688,15	62958,66
688,35	63009,85
688,54	63001,66
688,73	63071,29
688,93	62800,96
689,12	63304,76
689,31	63366,20
689,51	63345,72
689,70	63013,95
689,89	63345,72
690,09	63085,63
690,28	62542,92
690,47	62370,89
690,67	62837,83
690,86	63130,68
691,05	63378,49
691,25	63276,09
691,44	63546,42
691,63	62735,43
691,83	63169,60
692,02	62776,39
692,21	62522,44
692,41	62317,64
692,60	62921,79
692,79	62571,59
692,99	62780,48
693,18	62616,64
693,37	63091,77
693,56	62659,65
693,76	63331,39
693,95	63470,65
694,14	62624,84
694,34	62600,26
694,53	62563,40
694,72	62032,97
694,92	62676,04
695,11	62731,33
695,30	62995,52
695,49	62854,21
695,69	62925,89
695,88	62772,29
696,07	63190,08
696,27	62512,20
696,46	62276,68
696,65	62137,42
696,84	61811,79
697,04	62135,37
697,23	61891,66
697,42	62395,46
697,61	62493,77
697,81	62592,07
698,00	62839,87
698,19	62002,25
698,39	62180,43
698,58	61473,88
698,77	62018,64
698,96	61518,93
699,16	62235,72
699,35	61713,49
699,54	61592,66
699,73	61408,34
699,93	61699,15
700,12	61019,23
700,31	60841,06
700,50	60998,75
700,70	61056,09
700,89	60572,77
701,08	60591,20
701,27	60437,61
701,47	60671,07
701,66	60505,19
701,85	60888,16
702,04	61883,47
702,24	61598,80
702,43	61590,61
702,62	61895,76
702,81	60830,82
703,00	60691,55
703,20	61555,80
703,39	60859,49
703,58	61082,72
703,77	60965,98
703,97	60306,54
704,16	60759,14
704,35	60357,74
704,54	60982,37
704,73	61217,88
704,93	61303,90
705,12	61025,37
705,31	59915,37
705,50	60478,57
705,69	60783,71
705,89	60998,75
706,08	60425,32
706,27	60118,12
706,46	59862,13
706,65	59898,99
706,85	59790,45
707,04	59860,08
707,23	59722,86
707,42	60402,79
707,61	60050,54
707,81	60296,30
708,00	60107,88
708,19	59999,34
708,38	60030,06
708,57	60523,62
708,77	60415,08
708,96	59782,26
709,15	59864,17
709,34	59683,95
709,53	59513,97
709,72	59126,91
709,92	58973,31
710,11	59044,99
710,30	59726,96
710,49	59673,71
710,68	59761,78
710,87	59606,13
711,07	59585,65
711,26	60028,01
711,45	59110,52
711,64	59341,94
711,83	59571,32
712,02	59122,81
712,22	59610,23
712,41	58922,11
712,60	59102,33
712,79	59102,33
712,98	58889,34
713,17	58541,19
713,37	58481,80
713,56	58508,42
713,75	58037,39
713,94	57963,66
714,13	58397,83
714,32	58616,96
714,51	58514,56
714,70	58092,68
714,90	58225,80
715,09	58334,34
715,28	57904,27
715,47	58557,57
715,66	59028,60
715,85	58815,61
716,04	58958,97
716,24	58698,88
716,43	58455,17
716,62	58168,46
716,81	58557,57
717,00	57988,24
717,19	58045,58
717,38	58190,98
717,57	57670,80
717,76	58057,87
717,96	57826,45
718,15	58219,66
718,34	58133,64
718,53	57910,41
718,72	57574,55
718,91	57455,76
719,10	56849,56
719,29	57263,25
719,48	56558,75
719,67	57132,18
719,87	56566,94
720,06	57134,23
720,25	56898,72
720,44	56947,87
720,63	56466,59
720,82	56609,95
721,01	56169,64
721,20	56136,87
721,39	55817,39
721,58	56833,18
721,77	56315,04
721,96	56147,11
722,16	56439,97
722,35	56251,56
722,54	55948,46
722,73	56351,91
722,92	56124,58
723,11	55786,67
723,30	56294,56
723,49	55829,68
723,68	55712,94
723,87	55155,89
724,06	55444,66
724,25	55446,71
724,44	55809,20
724,63	56468,64
724,82	55932,07
725,02	55606,45
725,21	55932,07
725,40	55178,42
725,59	55768,24
725,78	55461,04
725,97	55334,07
726,16	55481,52
726,35	55534,77
726,54	55465,14
726,73	55033,02
726,92	55192,76
727,11	55659,69
727,30	55162,04
727,49	55090,36
727,68	55274,68
727,87	55882,92
728,06	56466,59
728,25	55897,26
728,44	55606,45
728,63	55823,53
728,82	55788,72
729,01	55866,54
729,20	55708,85
729,39	55372,98
729,58	55209,14
729,77	55319,73
729,96	55033,02
730,15	55235,77
730,34	55669,93
730,53	55428,27
730,72	55254,20
730,91	55579,82
731,10	55530,67
731,29	55434,42
731,48	55405,75
731,67	55309,49
731,86	55309,49
732,05	55487,67
732,24	55581,87
732,43	55088,31
732,62	55329,97
732,81	55030,97
733,00	55274,68
733,19	54922,43
733,38	55172,28
733,57	55129,27
733,76	55745,71
733,95	55805,10
734,14	55813,29
734,33	54779,07
734,52	55375,03
734,71	54781,12
734,90	55012,54
735,09	55194,81
735,28	55088,31
735,47	55116,98
735,66	55166,13
735,85	54764,73
736,04	54353,09
736,23	54584,51
736,42	54871,23
736,61	54768,83
736,80	55004,34
736,99	54295,75
737,18	54400,19
737,37	54121,67
737,56	54019,27
737,74	54559,94
737,93	54103,24
738,12	54406,34
738,31	54346,95
738,50	54244,55
738,69	54234,31
738,88	53906,63
739,07	54625,47
739,26	54426,82
739,45	54746,30
739,64	54502,59
739,83	54588,61
740,02	54445,25
740,21	54058,18
740,40	54512,83
740,58	54645,95
740,77	55131,32
740,96	54273,22
741,15	53847,24
741,34	54162,63
741,53	54777,02
741,72	54342,85
741,91	54230,21
742,10	53523,66
742,29	53181,65
742,48	53079,25
742,67	53753,04
742,85	53306,58
743,04	53820,62
743,23	53351,63
743,42	53540,05
743,61	53638,35
743,80	54021,32
743,99	52942,04
744,18	53255,38
744,37	53071,06
744,56	53601,49
744,74	53421,26
744,93	53660,88
745,12	53789,90
745,31	54125,77
745,50	54400,19
745,69	54283,46
745,88	53683,40
746,07	53169,36
746,25	53607,63
746,44	53464,27
746,63	53677,26
746,82	53968,07
747,01	53525,71
747,20	52960,47
747,39	53198,04
747,58	53208,28
747,76	52735,20
747,95	53523,66
748,14	52856,03
748,33	53527,76
748,52	52733,15
748,71	53050,58
748,90	53073,11
749,08	52569,31
749,27	53097,69
749,46	52720,86
749,65	53458,13
749,84	52552,93
750,03	53165,27
750,22	53523,66
750,40	52968,66
750,59	53314,77
750,78	53175,51
750,97	52999,38
751,16	52497,63
751,35	52767,96
751,53	52790,49
751,72	52870,36
751,91	53163,22
752,10	52927,70
752,29	52364,51
752,48	53001,43
752,66	52853,98
752,85	52874,46
753,04	52495,58
753,23	52352,23
753,42	52567,26
753,60	52069,61
753,79	52176,10
753,98	51922,15
754,17	51627,24
754,36	51776,75
754,54	51932,39
754,73	51999,97
754,92	52045,03
755,11	51778,79
755,30	51856,62
755,48	51864,81
755,67	52059,37
755,86	52151,52
756,05	51668,20
756,24	51072,24
756,42	51381,49
756,61	51467,50
756,80	51799,27
756,99	52298,98
757,18	51586,28
757,36	52393,18
757,55	52229,35
757,74	51922,15
757,93	51877,10
758,12	51686,64
758,30	51746,03
758,49	50783,48
758,68	50828,54
758,87	50904,31
759,05	50107,65
759,24	50713,85
759,43	50609,40
759,62	50547,96
759,80	50341,12
759,99	50214,15
760,18	50324,74
760,37	49868,04
760,55	49960,20
760,74	49693,96
760,93	49788,17
761,12	49792,26
761,30	49290,51
761,49	49724,68
761,68	49941,77
761,87	50119,94
762,05	50357,50
762,24	50515,20
762,43	50203,91
762,62	49683,72
762,80	49427,73
762,99	50074,88
763,18	49845,51
763,37	50021,64
763,55	50281,73
763,74	49736,97
763,93	49777,93
764,12	50177,28
764,30	48938,26
764,49	48530,72
764,68	48633,11
764,86	48833,81
765,05	48997,65
765,24	48807,19
765,43	49630,47
765,61	49042,71
765,80	49032,47
765,99	49650,95
766,17	49278,22
766,36	49261,84
766,55	49915,14
766,74	49790,22
766,92	49751,30
767,11	49071,38
767,30	49337,62
767,48	49005,84
767,67	48766,23
767,86	49116,43
768,04	49300,75
768,23	48688,41
768,42	48334,11
768,60	49083,67
768,79	48735,51
768,98	48776,47
769,17	48356,64
769,35	48291,10
769,54	48258,34
769,73	47985,96
769,91	47691,05
770,10	48442,65
770,29	48092,45
770,47	47451,44
770,66	47895,85
770,85	46863,67
771,03	47121,71
771,22	47408,43
771,41	47541,55
771,59	46914,87
771,78	47355,18
771,97	47314,22
772,15	47600,94
772,34	48104,74
772,53	47437,10
772,71	47039,79
772,90	47308,08
773,08	46939,44
773,27	47260,97
773,46	46683,45
773,64	47519,02
773,83	47762,73
774,02	47781,16
774,20	47490,35
774,39	47379,76
774,58	47301,93
774,76	47580,46
774,95	47009,07
775,13	46765,37
775,32	46857,52
775,51	46802,23
775,69	46048,58
775,88	46437,69
776,07	46228,80
776,25	45944,13
776,44	46083,39
776,62	46101,82
776,81	45798,73
777,00	45790,53
777,18	45266,25
777,37	45782,34
777,56	45993,28
777,74	46597,43
777,93	46126,40
778,11	45655,37
778,30	45149,52
778,49	44891,48
778,67	44811,60
778,86	45120,85
779,04	44461,40
779,23	44590,42
779,42	45133,14
779,60	44186,97
779,79	44574,04
779,97	44559,70
780,16	44807,51
780,34	44932,43
780,53	44850,52
780,72	44584,28
780,90	44209,50
781,09	43988,32
781,27	43668,84
781,46	43410,79
781,65	43519,34
781,83	43355,50
782,02	43416,94
782,20	44287,32
782,39	44105,06
782,57	43869,54
782,76	43738,47
782,95	43971,94
783,13	43597,16
783,32	44021,09
783,50	44010,85
783,69	43789,67
783,87	43869,54
784,06	43505,00
784,24	44027,23
784,43	43648,36
784,62	43763,04
784,80	43609,45
784,99	43173,23
785,17	42714,48
785,36	43269,48
785,54	42773,88
785,73	43062,64
785,91	43607,40
786,10	43384,17
786,28	43314,54
786,47	43099,50
786,65	42886,51
786,84	42833,27
787,02	42716,53
787,21	42759,54
787,40	43228,52
787,58	43246,96
787,77	42540,41
787,95	42712,44
788,14	42106,24
788,32	42272,12
788,51	41993,60
788,69	42470,78
788,88	42411,38
789,06	42657,14
789,25	42356,09
789,43	42186,11
789,62	42182,01
789,80	41762,18
789,99	41983,36
790,17	41999,74
790,36	42005,89
790,54	41809,28
790,73	42257,79
790,91	42065,28
791,10	42227,07
791,28	41926,02
791,47	41448,84
791,65	41684,36
791,84	41219,47
792,02	41721,22
792,21	41680,26
792,39	41704,84
792,58	41981,31
792,76	41637,25
792,94	42009,98
793,13	42198,40
793,31	42200,44
793,50	42118,53
793,68	42079,61
793,87	42388,86
794,05	41962,88
794,24	41885,06
794,42	41504,13
794,61	41553,29
794,79	41373,06
794,98	42012,03
795,16	41813,38
795,34	41616,77
795,53	41383,30
795,71	41612,68
795,90	41151,88
796,08	41502,09
796,27	41514,37
796,45	41192,84
796,64	41086,35
796,82	41076,11
797,00	41364,87
797,19	41168,27
797,37	42081,66
797,56	42022,27
797,74	41229,71
797,93	41504,13
798,11	41315,72
798,29	41479,56
798,48	41674,12
798,66	42100,09
798,85	42433,91
799,03	41946,50
799,22	42589,56
799,40	41448,84
799,58	41526,66
799,77	41387,40
799,95	41497,99
800,14	41618,82
800,32	41553,29
800,50	41715,08
800,69	41354,63
800,87	41872,77
801,06	42212,73
801,24	41692,55
801,42	41850,24
801,61	41162,12
801,79	41198,99
801,98	40695,19
802,16	40826,26
802,34	40775,06
802,53	40807,83
802,71	40754,58
802,90	40986,00
803,08	40773,01
803,26	40844,69
803,45	41080,21
803,63	40779,15
803,82	41196,94
804,00	41090,44
804,18	41123,21
804,37	40670,61
804,55	40619,41
804,73	41399,69
804,92	40848,78
805,10	40822,16
805,28	40760,72
805,47	40084,89
805,65	40283,55
805,84	40103,32
806,02	40258,97
806,20	40056,22
806,39	39830,94
806,57	40400,28
806,75	40492,44
806,94	40629,65
807,12	40809,87
807,30	40725,91
807,49	40166,81
807,67	40250,78
807,85	40482,20
808,04	40127,90
808,22	40009,12
808,40	39925,15
808,59	40007,07
808,77	39957,92
808,95	39777,70
809,14	39620,00
809,32	39730,59
809,50	38806,96
809,69	38593,97
809,87	39085,48
810,05	39501,22
810,24	39384,49
810,42	39239,08
810,60	38978,99
810,79	39706,02
810,97	39034,28
811,15	39318,95
811,34	39425,45
811,52	39738,79
811,70	39554,47
811,88	39468,45
812,07	39286,18
812,25	38733,23
812,43	38878,64
812,62	38196,67
812,80	38706,61
812,98	38735,28
813,17	38620,59
813,35	38872,49
813,53	38737,33
813,71	38194,62
813,90	37967,29
814,08	37582,27
814,26	37402,05
814,45	37647,81
814,63	37502,40
814,81	37197,26
814,99	37443,01
815,18	37633,47
815,36	37182,92
815,54	37393,86
815,72	36924,88
815,91	37156,30
816,09	37555,65
816,27	37379,53
816,46	37182,92
816,64	37090,76
816,82	36656,59
817,00	36689,36
817,19	36185,56
817,37	36779,47
817,55	36283,86
817,73	36799,95
817,92	37158,34
818,10	36619,73
818,28	36935,12
818,46	36705,74
818,65	36482,52
818,83	36531,67
819,01	35960,28
819,19	35710,43
819,37	35710,43
819,56	35835,36
819,74	35974,62
819,92	35911,13
820,10	36335,06
820,29	36072,92
820,47	35939,80
820,65	36117,98
820,83	35866,08
821,02	35702,24
821,20	35321,32
821,38	35268,07
821,56	35212,77
821,74	35503,59
821,93	35794,40
822,11	35589,60
822,29	35552,74
822,47	34954,73
822,65	34780,65
822,84	35309,03
823,02	35063,27
823,20	34694,64
823,38	35223,01
823,56	34330,10
823,75	34702,83
823,93	34414,07
824,11	34815,47
824,29	34258,42
824,47	34598,38
824,66	34788,85
824,84	34760,17
825,02	34307,57
825,20	34547,18
825,38	34110,97
825,56	34276,85
825,75	33838,59
825,93	34172,41
826,11	34301,43
826,29	34223,61
826,47	33990,14
826,65	33900,03
826,84	33766,91
827,02	33736,19
827,20	33281,54
827,38	33422,85
827,56	33906,17
827,74	33549,82
827,93	33551,87
828,11	33299,97
828,29	33160,71
828,47	33297,92
828,65	33361,41
828,83	33328,64
829,02	33383,94
829,20	33543,68
829,38	33005,06
829,56	33060,36
829,74	33029,64
829,92	32790,03
830,10	32910,86
830,28	33549,82
830,47	32646,67
830,65	32661,01
830,83	32368,15
831,01	32280,08
831,19	32368,15
831,37	32491,02
831,55	32226,84
831,73	32312,85
831,92	32149,01
832,10	32327,19
832,28	32312,85
832,46	32263,70
832,64	32159,25
832,82	32593,42
833,00	32384,53
833,18	32390,67
833,36	32519,70
833,55	31839,77
833,73	31981,08
833,91	31942,17
834,09	31811,10
834,27	31929,88
834,45	32058,90
834,63	31942,17
834,81	31639,07
834,99	32079,38
835,17	31483,42
835,36	31882,78
835,54	31426,08
835,72	31462,94
835,90	31417,89
836,08	31409,70
836,26	31090,21
836,44	31028,77
836,62	30895,66
836,80	30864,94
836,98	31075,88
837,16	31039,01
837,34	31112,74
837,52	30801,45
837,71	31172,13
837,89	30789,16
838,07	30948,90
838,25	30967,34
838,43	31383,07
838,61	31247,91
838,79	30873,13
838,97	30799,40
839,15	30797,35
839,33	30727,72
839,51	30639,66
839,69	30371,38
839,87	30527,02
840,05	30236,21
840,23	30541,36
840,41	29726,27
840,59	29879,86
840,77	30019,13
840,95	29578,81
841,13	29890,10
841,31	29976,12
841,49	30017,08
841,67	30084,66
841,86	30019,13
842,04	29924,92
842,22	30000,69
842,40	30160,44
842,58	29873,72
842,76	29666,88
842,94	29476,41
843,12	29611,58
843,30	29630,01
843,48	29525,57
843,66	29529,66
843,84	28900,94
844,02	28845,64
844,20	29165,12
844,38	29310,53
844,56	29410,88
844,74	29396,54
844,92	29312,58
845,10	29468,22
845,28	29279,81
845,46	29079,11
845,64	29001,29
845,82	28859,98
846,00	29294,14
846,18	28900,94
846,36	28943,94
846,54	29161,03
846,72	28870,22
846,90	28821,06
847,07	28444,24
847,25	28646,99
847,43	29027,91
847,61	28864,07
847,79	28239,44
847,97	28784,20
848,15	28587,60
848,33	28601,93
848,51	28608,08
848,69	28436,05
848,87	28542,54
849,05	28872,26
849,23	28546,64
849,41	28335,70
849,59	28706,38
849,77	28513,87
849,95	28790,34
850,13	28567,12
850,31	28663,37
850,49	28870,22
850,67	28507,72
850,85	28298,83
851,02	28186,19
851,20	28003,92
851,38	28149,33
851,56	28118,61
851,74	28122,71
851,92	27711,07
852,10	27909,72
852,28	27911,77
852,46	27520,60
852,64	27651,67
852,82	27702,87
853,00	27735,64
853,18	27946,58
853,36	27264,61
853,53	27403,87
853,71	27344,48
853,89	27557,47
854,07	27459,16
854,25	27405,92
854,43	27833,94
854,61	27450,97
854,79	27485,79
854,97	27199,07
855,15	26627,69
855,32	26855,01
855,50	26680,94
855,68	26658,41
855,86	26932,84
856,04	27033,19
856,22	26938,98
856,40	26875,49
856,58	26941,03
856,76	27086,43
856,93	27063,91
857,11	26801,77
857,29	27127,39
857,47	26703,46
857,65	26400,37
857,83	26660,46
858,01	26553,96
858,19	26312,30
858,36	26080,88
858,54	26263,15
858,72	26330,73
858,90	26271,34
859,08	26373,74
859,26	26318,45
859,44	26441,32
859,61	26263,15
859,79	26101,36
859,97	26259,06
860,15	26650,22
860,33	26216,05
860,51	26162,80
860,69	26080,88
860,86	26017,40
861,04	25912,95
861,22	25562,75
861,40	25927,28
861,58	25851,51
861,76	25710,20
861,93	25783,93
862,11	25435,77
862,29	25360,00
862,47	25183,87
862,65	25124,48
862,83	24958,60
863,00	24999,55
863,18	24632,97
863,36	25075,33
863,54	25044,61
863,72	25046,66
863,89	24970,88
864,07	25241,21
864,25	25458,30
864,43	25351,81
864,61	25206,40
864,78	25620,09
864,96	25073,28
865,14	25241,21
865,32	24784,52
865,50	24546,95
865,67	24622,73
865,85	24673,93
866,03	24682,12
866,21	24649,35
866,39	24299,15
866,56	24333,96
866,74	24571,53
866,92	24037,01
867,10	24229,52
867,28	23989,91
867,45	23975,57
867,63	23641,75
867,81	23713,43
867,99	23770,77
868,16	23744,15
868,34	23770,77
868,52	23807,64
868,70	23912,08
868,87	23520,92
869,05	23436,95
869,23	23512,73
869,41	23721,62
869,59	23531,16
869,76	23232,16
869,94	23264,92
870,12	23160,48
870,30	22529,70
870,47	22879,91
870,65	22949,54
870,83	22759,08
871,01	22953,63
871,18	22832,80
871,36	22795,94
871,54	23314,08
871,71	22896,29
871,89	22820,52
872,07	22777,51
872,25	22533,80
872,42	22750,88
872,60	22210,22
872,78	22384,30
872,96	22306,48
873,13	22077,10
873,31	21757,62
873,49	21753,52
873,66	21669,56
873,84	21558,97
874,02	21765,81
874,20	21663,41
874,37	21679,80
874,55	21657,27
874,73	21247,68
874,90	21485,24
875,08	21337,79
875,26	21489,34
875,44	21225,15
875,61	21460,66
875,79	20952,77
875,97	21028,54
876,14	20766,40
876,32	20950,72
876,50	21071,55
876,67	20543,17
876,85	20713,16
877,03	20874,95
877,20	20799,17
877,38	20659,91
877,56	20942,53
877,73	20799,17
877,91	20963,01
878,09	21157,57
878,26	20819,65
878,44	20895,43
878,62	20917,95
878,79	20741,83
878,97	20582,09
879,15	20893,38
879,32	20840,13
879,50	20655,81
879,68	20768,45
879,85	20590,28
880,03	20504,26
880,21	20825,79
880,38	21210,81
880,56	20412,10
880,74	20156,11
880,91	20207,31
881,09	19898,06
881,27	19957,46
881,44	20334,28
881,62	20117,20
881,79	20530,89
881,97	20319,95
882,15	20487,88
882,32	20276,94
882,50	20545,22
882,68	20260,55
882,85	20502,22
883,03	20592,33
883,21	20190,92
883,38	20408,01
883,56	20219,60
883,73	20297,42
883,91	20164,30
884,09	20205,26
884,26	20037,33
884,44	20014,80
884,61	19994,32
884,79	20549,32
884,97	20422,34
885,14	20063,95
885,32	19988,18
885,49	20137,68
885,67	19996,37
885,85	20217,55
886,02	20410,06
886,20	19941,07
886,37	20129,48
886,55	20287,18
886,73	20346,57
886,90	20584,13
887,08	20512,46
887,25	20952,77
887,43	20479,69
887,60	20225,74
887,78	20219,60
887,96	20348,62
888,13	20408,01
888,31	20291,27
888,48	20045,52
888,66	20100,81
888,83	20135,63
889,01	19994,32
889,19	20291,27
889,36	20606,66
889,54	20367,05
889,71	20412,10
889,89	19861,20
890,06	19881,68
890,24	19687,12
890,41	19818,19
890,59	19744,47
890,77	20166,35
890,94	20063,95
891,12	20455,11
891,29	20643,52
891,47	20760,26
891,64	20899,52
891,82	20629,19
891,99	20688,58
892,17	20471,50
892,34	20367,05
892,52	20594,37
892,69	20315,85
892,87	20293,32
893,04	20162,25
893,22	19975,89
893,40	19908,30
893,57	20350,67
893,75	20330,19
893,92	20092,62
894,10	19889,87
894,27	20096,72
894,45	19924,69
894,62	19779,28
894,80	20412,10
894,97	20106,96
895,15	19656,40
895,32	19697,36
895,50	20197,07
895,67	19824,34
895,85	19951,31
896,02	19418,84
896,20	20070,09
896,37	20102,86
896,55	19793,62
896,72	19619,54
896,89	19367,64
897,07	19838,67
897,24	19623,64
897,42	19752,66
897,59	19848,91
897,77	19707,60
897,94	19928,78
898,12	19777,23
898,29	19805,91
898,47	19474,13
898,64	19535,57
898,82	19666,64
898,99	19578,58
899,17	19748,56
899,34	19441,37
899,52	19218,14
899,69	19078,88
899,86	19275,48
900,04	19252,95
900,21	19654,36
900,39	19523,29
900,56	19285,72
900,74	19658,45
900,91	19398,36
901,09	19341,02
901,26	19377,88
901,43	19031,77
901,61	19152,60
901,78	18845,41
901,96	18974,43
902,13	19121,88
902,31	18872,03
902,48	19240,67
902,65	19029,73
902,83	18566,88
903,00	18890,46
903,18	18919,14
903,35	18728,67
903,53	18417,38
903,70	18398,95
903,87	18222,83
904,05	18314,98
904,22	18534,12
904,40	18515,69
904,57	18202,35
904,74	17915,63
904,92	18202,35
905,09	18042,60
905,27	18050,80
905,44	17782,51
905,61	17856,24
905,79	17772,27
905,96	17917,68
906,13	17868,53
906,31	17968,88
906,48	17706,74
906,66	17960,69
906,83	18003,69
907,00	17940,21
907,18	17628,92
907,35	17526,52
907,53	17739,51
907,70	17612,53
907,87	17479,41
908,05	17069,82
908,22	17393,40
908,39	17317,62
908,57	17442,55
908,74	17354,49
908,91	17276,66
909,09	17409,78
909,26	17219,32
909,44	17309,43
909,61	17170,17
909,78	17194,75
909,96	17168,12
910,13	16711,42
910,30	16869,12
910,48	16469,76
910,65	16490,24
910,82	16293,64
911,00	16480,00
911,17	16264,97
911,34	16097,03
911,52	16269,06
911,69	16330,50
911,86	15902,48
912,04	16195,34
912,21	16488,20
912,38	15814,41
912,56	16133,90
912,73	16097,03
912,90	15968,01
913,08	15884,05
913,25	15662,86
913,42	15970,06
913,59	15613,71
913,77	15552,27
913,94	15798,03
914,11	15611,67
914,29	15548,18
914,46	15073,05
914,63	15222,55
914,81	15032,09
914,98	14966,56
915,15	14984,99
915,32	14982,94
915,50	14933,79
915,67	14642,98
915,84	14909,21
916,02	15075,10
916,19	14956,32
916,36	14769,95
916,53	14743,33
916,71	14710,56
916,88	14616,35
917,05	14626,59
917,23	14755,61
917,40	14540,58
917,57	14421,80
917,74	14171,94
917,92	14292,77
918,09	14114,60
918,26	14274,34
918,43	14325,54
918,61	14200,62
918,78	14221,10
918,95	14178,09
919,12	13928,24
919,30	14049,07
919,47	13834,03
919,64	13711,15
919,81	13934,38
919,99	13641,52
920,16	13606,70
920,33	13569,84
920,50	13211,45
920,68	13461,30
920,85	13303,60
921,02	13293,37
921,19	13201,21
921,36	13315,89
921,54	13295,41
921,71	13760,30
921,88	13436,72
922,05	13184,82
922,23	13182,77
922,40	13068,09
922,57	13053,75
922,74	12775,23
922,91	12615,49
923,09	12603,20
923,26	12576,58
923,43	12623,68
923,60	12461,89
923,77	12623,68
923,95	12451,65
924,12	12418,88
924,29	12261,19
924,46	12623,68
924,63	12316,48
924,81	12353,35
924,98	12236,61
925,15	12142,41
925,32	12183,37
925,49	11951,95
925,67	11693,90
925,84	11827,02
926,01	11841,36
926,18	11689,81
926,35	11708,24
926,52	11759,44
926,70	11808,59
926,87	11665,23
927,04	11372,37
927,21	11308,88
927,38	11319,12
927,55	11257,68
927,73	11079,51
927,90	11353,94
928,07	11341,65
928,24	11319,12
928,41	11220,82
928,58	11073,37
928,76	11009,88
928,93	10911,58
929,10	10827,61
929,27	10602,33
929,44	10841,95
929,61	10762,08
929,78	11005,78
929,96	10719,07
930,13	10477,41
930,30	10485,60
930,47	10514,27
930,64	10327,91
930,81	10295,14
930,98	10121,06
931,15	10235,75
931,33	10344,29
931,50	10340,19
931,67	10184,55
931,84	9983,85
932,01	9989,99
932,18	9961,32
932,35	9795,43
932,52	9850,73
932,69	9824,11
932,87	9854,83
933,04	9885,55
933,21	9699,18
933,38	9598,83
933,55	9584,49
933,72	9301,87
933,89	9535,34
934,06	9164,66
934,23	9025,40
934,40	9088,89
934,58	9054,07
934,75	8918,90
934,92	8875,90
935,09	8896,38
935,26	8746,87
935,43	8836,99
935,60	8593,28
935,77	8449,92
935,94	8521,60
936,11	8470,40
936,28	8466,30
936,45	8370,05
936,62	8302,47
936,79	8064,90
936,97	8142,72
937,14	7886,73
937,31	7683,98
937,48	7851,91
937,65	7815,05
937,82	7720,84
937,99	7495,57
938,16	7352,21
938,33	7315,34
938,50	7278,48
938,67	7075,73
938,84	7067,54
939,01	6930,33
939,18	6944,66
939,35	6811,54
939,52	6625,18
939,69	6551,45
939,86	6420,38
940,03	6451,10
940,20	6307,74
940,37	6274,98
940,54	6225,82
940,71	5955,49
940,88	6213,54
941,05	5935,01
941,22	6006,69
941,39	5877,67
941,56	5928,87
941,73	5814,18
941,91	5836,71
942,08	5713,83
942,25	5869,48
942,42	5711,78
942,59	5599,15
942,76	5576,62
942,93	5586,86
943,09	5498,80
943,26	5552,04
943,43	5423,02
943,60	5429,17
943,77	5447,60
943,94	5414,83
944,11	5435,31
944,28	5283,76
944,45	5347,25
944,62	5253,04
944,79	5394,35
944,96	5197,74
945,13	5164,98
945,30	4992,95
945,47	5128,11
945,64	5070,77
945,81	5328,81
945,98	5216,18
946,15	5222,32
946,32	5259,18
946,49	5324,72
946,66	5175,22
946,83	5246,90
947,00	5181,36
947,17	5158,83
947,34	5275,57
947,51	5134,26
947,68	5158,83
947,85	5136,31
948,02	5185,46
948,18	5195,70
948,35	5087,15
948,52	5160,88
948,69	5197,74
948,86	5160,88
949,03	5109,68
949,20	5220,27
949,37	5040,05
949,54	5160,88
949,71	5224,37
949,88	5162,93
950,05	5191,60
950,22	5207,98
950,38	5132,21
950,55	5183,41
950,72	5212,08
950,89	5128,11
951,06	5087,15
951,23	5210,03
951,40	5328,81
951,57	5210,03
951,74	5255,09
951,91	5339,05
952,08	5287,86
952,24	5304,24
952,41	5197,74
952,58	5308,34
952,75	5287,86
952,92	5189,55
953,09	5367,73
953,26	5304,24
953,43	5337,01
953,59	5289,90
953,76	5277,62
953,93	5279,66
954,10	5294,00
954,27	5320,62
954,44	5363,63
954,61	5406,64
954,78	5328,81
954,94	5302,19
955,11	5353,39
955,28	5300,14
955,45	5218,22
955,62	5246,90
955,79	5320,62
955,96	5210,03
956,12	5414,83
956,29	5277,62
956,46	5271,47
956,63	5187,50
956,80	5322,67
956,97	5308,34
957,13	5261,23
957,30	5250,99
957,47	5291,95
957,64	5285,81
957,81	5222,32
957,98	5171,12
958,14	5279,66
958,31	5150,64
958,48	5226,42
958,65	5167,03
958,82	5191,60
958,99	5222,32
959,15	5277,62
959,32	5056,43
959,49	5146,55
959,66	5259,18
959,83	5164,98
959,99	5083,06
960,16	5275,57
960,33	5302,19
960,50	5320,62
960,67	5396,40
960,83	5281,71
961,00	5023,67
961,17	5175,22
961,34	5179,31
961,51	5119,92
961,67	5064,63
961,84	5334,96
962,01	5081,01
962,18	5158,83
962,35	5181,36
962,51	4970,42
962,68	5115,83
962,85	5050,29
963,02	5162,93
963,18	5128,11
963,35	5085,11
963,52	5244,85
963,69	5111,73
963,86	5111,73
964,02	5052,34
964,19	4943,80
964,36	5072,82
964,53	4913,08
964,69	4951,99
964,86	4960,18
965,03	5029,81
965,20	5007,28
965,36	4956,08
965,53	4976,56
965,70	4966,32
965,87	4960,18
966,03	5050,29
966,20	4943,80
966,37	4822,97
966,53	4812,73
966,70	4839,35
966,87	4802,49
967,04	4800,44
967,20	4913,08
967,37	4927,41
967,54	4851,64
967,71	4988,85
967,87	4741,05
968,04	4898,74
968,21	4915,12
968,37	4820,92
968,54	4792,25
968,71	4634,55
968,88	4675,51
969,04	4775,86
969,21	4753,34
969,38	4825,01
969,54	4659,13
969,71	4630,46
969,88	4614,07
970,04	4595,64
970,21	4620,22
970,38	4579,26
970,55	4739,00
970,71	4532,15
970,88	4724,66
971,05	4628,41
971,21	4507,58
971,38	4421,56
971,55	4566,97
971,71	4491,20
971,88	4444,09
972,05	4411,32
972,21	4476,86
972,38	4413,37
972,55	4487,10
972,71	4554,68
972,88	4483,00
973,05	4446,14
973,21	4558,78
973,38	4558,78
973,55	4460,48
973,71	4501,44
973,88	4564,92
974,05	4458,43
974,21	4462,52
974,38	4390,84
974,54	4548,54
974,71	4413,37
974,88	4380,61
975,04	4304,83
975,21	4437,95
975,38	4302,78
975,54	4212,67
975,71	4376,51
975,88	4263,87
976,04	4317,12
976,21	4323,26
976,37	4276,16
976,54	4382,65
976,71	4157,38
976,87	4255,68
977,04	4224,96
977,20	4284,35
977,37	4194,24
977,54	4110,27
977,70	4104,13
977,87	4302,78
978,03	4079,55
978,20	4218,82
978,37	4120,51
978,53	4194,24
978,70	4173,76
978,86	4151,23
979,03	4018,11
979,20	4020,16
979,36	3954,63
979,53	4116,42
979,69	3977,16
979,86	4016,07
980,03	3936,20
980,19	4059,07
980,36	4106,18
980,52	4165,57
980,69	4032,45
980,85	3995,59
981,02	3950,53
981,19	3950,53
981,35	4026,31
981,52	3885,00
981,68	3938,24
981,85	3956,68
982,01	3971,01
982,18	3987,40
982,34	3971,01
982,51	3923,91
982,68	3911,62
982,84	3880,90
983,01	3850,18
983,17	3907,52
983,34	3858,37
983,50	3850,18
983,67	3768,26
983,83	3932,10
984,00	3821,51
984,16	3741,64
984,33	3706,82
984,49	3801,03
984,66	3792,84
984,83	3784,65
984,99	3698,63
985,16	3661,77
985,32	3690,44
985,49	3610,57
985,65	3766,21
985,82	3702,73
985,98	3694,54
986,15	3698,63
986,31	3686,34
986,48	3747,78
986,64	3542,99
986,81	3528,65
986,97	3461,07
987,14	3534,79
987,30	3778,50
987,47	3649,48
987,63	3575,75
987,80	3600,33
987,96	3520,46
988,13	3420,11
988,29	3520,46
988,46	3565,51
988,62	3573,71
988,79	3489,74
988,95	3364,81
989,11	3547,08
989,28	3506,12
989,44	3448,78
989,61	3461,07
989,77	3653,58
989,94	3373,00
990,10	3471,31
990,27	3344,33
990,43	3377,10
990,60	3362,76
990,76	3452,88
990,93	3442,64
991,09	3397,58
991,25	3280,85
991,42	3227,60
991,58	3344,33
991,75	3284,94
991,91	3239,89
992,08	3319,76
992,24	3428,30
992,41	3266,51
992,57	3432,40
992,73	3350,48
992,90	3274,70
993,06	3135,44
993,23	3266,51
993,39	3348,43
993,56	3153,87
993,72	3284,94
993,88	3243,98
994,05	3297,23
994,21	3096,53
994,38	3190,74
994,54	3227,60
994,70	3260,37
994,87	3215,31
995,03	3121,10
995,20	3172,30
995,36	3037,14
995,52	3211,22
995,69	3149,78
995,85	3176,40
996,02	3088,34
996,18	3162,06
996,34	3137,49
996,51	3153,87
996,67	3147,73
996,84	3065,81
997,00	3123,15
997,16	2947,03
997,33	2998,23
997,49	3039,19
997,65	2838,48
997,82	3059,67
997,98	2977,75
998,15	2942,93
998,31	2852,82
998,47	2981,84
998,64	3024,85
998,80	2985,94
998,96	2926,55
999,13	3076,05
999,29	3026,90
999,45	2910,16
999,62	2979,79
999,78	2971,60
999,94	2983,89
1000,11	2928,60
1000,27	2934,74
1000,44	2987,99
1000,60	2756,57
1000,76	2863,06
1000,93	2922,45
1001,09	2934,74
1001,25	2858,96
1001,42	2883,54
1001,58	2830,29
1001,74	2863,06
1001,90	2895,83
1002,07	2846,68
1002,23	2820,05
1002,39	2799,57
1002,56	2797,53
1002,72	2742,23
1002,88	2785,24
1003,05	2979,79
1003,21	2873,30
1003,37	2703,32
1003,54	2762,71
1003,70	2924,50
1003,86	2809,81
1004,03	2717,65
1004,19	2793,43
1004,35	2754,52
1004,51	2736,09
1004,68	2664,41
1004,84	2650,07
1005,00	2754,52
1005,17	2758,61
1005,33	2631,64
1005,49	2744,28
1005,65	2736,09
1005,82	2744,28
1005,98	2787,29
1006,14	2678,74
1006,30	2617,30
1006,47	2731,99
1006,63	2686,94
1006,79	2656,22
1006,96	2627,54
1007,12	2463,71
1007,28	2598,87
1007,44	2664,41
1007,61	2674,65
1007,77	2570,20
1007,93	2564,06
1008,09	2539,48
1008,26	2445,27
1008,42	2473,95
1008,58	2643,93
1008,74	2469,85
1008,91	2496,47
1009,07	2432,99
1009,23	2512,86
1009,39	2559,96
1009,55	2467,80
1009,72	2699,22
1009,88	2549,72
1010,04	2490,33
1010,20	2369,50
1010,37	2506,71
1010,53	2492,38
1010,69	2463,71
1010,85	2416,60
1011,01	2351,07
1011,18	2459,61
1011,34	2506,71
1011,50	2410,46
1011,66	2447,32
1011,82	2467,80
1011,99	2353,12
1012,15	2408,41
1012,31	2400,22
1012,47	2527,19
1012,63	2453,47
1012,80	2424,80
1012,96	2363,36
1013,12	2328,54
1013,28	2344,92
1013,44	2428,89
1013,61	2377,69
1013,77	2349,02
1013,93	2269,15
1014,09	2512,86
1014,25	2263,01
1014,41	2322,40
1014,58	2316,25
1014,74	2279,39
1014,90	2377,69
1015,06	2379,74
1015,22	2230,24
1015,38	2351,07
1015,55	2332,64
1015,71	2334,68
1015,87	2254,81
1016,03	2224,09
1016,19	2310,11
1016,35	2260,96
1016,52	2291,68
1016,68	2242,53
1016,84	2293,72
1017,00	2326,49
1017,16	2203,61
1017,32	2269,15
1017,48	2263,01
1017,65	2209,76
1017,81	2232,29
1017,97	2334,68
1018,13	2158,56
1018,29	2281,44
1018,45	2199,52
1018,61	2082,78
1018,77	2236,38
1018,93	2277,34
1019,10	2207,71
1019,26	2289,63
1019,42	2125,79
1019,58	2146,27
1019,74	2228,19
1019,90	2189,28
1020,06	2220,00
1020,22	2244,57
1020,38	2148,32
1020,55	2064,35
1020,71	2203,61
1020,87	2203,61
1021,03	2195,42
1021,19	2125,79
1021,35	2090,98
1021,51	2154,46
1021,67	2105,31
1021,83	2090,98
1021,99	2146,27
1022,15	2129,89
1022,31	2160,61
1022,48	2056,16
1022,64	2113,50
1022,80	2099,17
1022,96	2072,54
1023,12	2041,82
1023,28	2056,16
1023,44	2101,22
1023,60	2101,22
1023,76	2041,82
1023,92	2150,37
1024,08	2037,73
1024,24	2023,39
1024,40	2041,82
1024,56	1953,76
1024,72	2064,35
1024,88	2015,20
1025,04	1964,00
1025,21	2019,30
1025,37	2107,36
1025,53	1970,15
1025,69	2027,49
1025,85	1970,15
1026,01	1918,95
1026,17	1953,76
1026,33	1925,09
1026,49	1949,67
1026,65	1990,63
1026,81	2009,06
1026,97	1972,19
1027,13	1929,19
1027,29	1900,52
1027,45	1914,85
1027,61	1990,63
1027,77	1867,75
1027,93	1904,61
1028,09	1923,04
1028,25	1914,85
1028,41	1920,99
1028,57	1974,24
1028,73	1914,85
1028,89	1808,36
1029,05	1869,80
1029,21	1865,70
1029,37	1816,55
1029,53	1816,55
1029,69	1957,86
1029,85	1886,18
1030,01	1906,66
1030,17	1859,56
1030,33	1818,60
1030,49	1908,71
1030,65	1843,17
1030,81	1834,98
1030,97	1912,80
1031,13	1929,19
1031,29	1918,95
1031,45	1849,32
1031,60	1867,75
1031,76	1816,55
1031,92	1832,93
1032,08	1695,72
1032,24	1861,60
1032,40	1923,04
1032,56	1798,12
1032,72	1843,17
1032,88	1775,59
1033,04	1880,04
1033,20	1849,32
1033,36	1824,74
1033,52	1785,83
1033,68	1843,17
1033,84	1834,98
1034,00	1693,67
1034,16	1816,55
1034,32	1812,45
1034,47	1771,49
1034,63	1859,56
1034,79	1773,54
1034,95	1777,64
1035,11	1781,73
1035,27	1767,40
1035,43	1742,82
1035,59	1841,12
1035,75	1757,16
1035,91	1703,91
1036,07	1767,40
1036,22	1875,94
1036,38	1708,01
1036,54	1794,02
1036,70	1806,31
1036,86	1818,60
1037,02	1705,96
1037,18	1703,91
1037,34	1619,94
1037,50	1642,47
1037,65	1748,97
>>>>>End Processed Spectral Data<<<<<
