SpectraSuite Datei
++++++++++++++++++++++++++++++++++++
Datum: Fri Dec 16 12:24:00 CET 2022
Benutzer: spektr
Dark-Spektrum vorhanden: Nein
Referenz-Spektrum vorhanden: Nein
Zahl der probierten Teilspektren: 1
Spektrometer: USB4F00406
Integrationszeit (usec): 100000 (USB4F00406)
Spektren Durchschnitt berechnet: 1 (USB4F00406)
Boxcar Glättung: 0 (USB4F00406)
Dunkelstromkorrektur: Nein (USB4F00406)
Puls/Lampe aktiviert: Nein (USB4F00406)
Correct for Detector Non-linearity: Nein (USB4F00406)
Streulichtkorrektur: Nein (USB4F00406)
Anzahl Pixel in verarbeitetem Spektrum: 3648
>>>>>Begin Processed Spectral Data<<<<<
345,69	1103,86
345,91	1103,86
346,12	1103,86
346,34	1095,66
346,55	1136,62
346,77	1116,14
346,98	1148,91
347,20	1187,82
347,41	1236,97
347,63	1212,40
347,84	1241,07
348,06	1288,17
348,27	1257,45
348,49	1183,73
348,70	1230,83
348,92	1153,01
349,13	1255,40
349,35	1234,93
349,56	1271,79
349,78	1345,52
349,99	1474,54
350,20	1304,56
350,42	1312,75
350,63	1396,71
350,85	1363,95
351,06	1435,63
351,28	1417,19
351,49	1417,19
351,71	1320,94
351,92	1392,62
352,14	1513,45
352,35	1449,96
352,57	1433,58
352,78	1439,72
353,00	1384,43
353,21	1447,91
353,43	1454,06
353,64	1370,09
353,85	1417,19
354,07	1382,38
354,28	1345,52
354,50	1445,87
354,71	1363,95
354,93	1439,72
355,14	1378,28
355,36	1398,76
355,57	1279,98
355,79	1439,72
356,00	1396,71
356,21	1431,53
356,43	1409,00
356,64	1462,25
356,86	1482,73
357,07	1423,34
357,29	1419,24
357,50	1441,77
357,72	1558,50
357,93	1376,24
358,14	1361,90
358,36	1406,95
358,57	1425,39
358,79	1429,48
359,00	1503,21
359,22	1480,68
359,43	1445,87
359,65	1476,59
359,86	1470,44
360,07	1409,00
360,29	1384,43
360,50	1454,06
360,72	1449,96
360,93	1490,92
361,14	1431,53
361,36	1409,00
361,57	1505,26
361,79	1429,48
362,00	1468,39
362,22	1476,59
362,43	1433,58
362,64	1499,11
362,86	1538,02
363,07	1449,96
363,29	1474,54
363,50	1456,11
363,72	1519,59
363,93	1454,06
364,14	1492,97
364,36	1482,73
364,57	1533,93
364,79	1492,97
365,00	1449,96
365,21	1470,44
365,43	1421,29
365,64	1540,07
365,86	1503,21
366,07	1427,43
366,28	1447,91
366,50	1511,40
366,71	1441,77
366,93	1535,98
367,14	1452,01
367,35	1511,40
367,57	1501,16
367,78	1619,94
367,99	1527,78
368,21	1538,02
368,42	1540,07
368,64	1613,80
368,85	1482,73
369,06	1566,70
369,28	1503,21
369,49	1552,36
369,71	1568,74
369,92	1419,24
370,13	1531,88
370,35	1523,69
370,56	1509,35
370,77	1540,07
370,99	1556,46
371,20	1443,82
371,42	1495,02
371,63	1509,35
371,84	1482,73
372,06	1572,84
372,27	1570,79
372,48	1478,63
372,70	1552,36
372,91	1628,14
373,12	1572,84
373,34	1533,93
373,55	1548,26
373,77	1503,21
373,98	1603,56
374,19	1562,60
374,41	1648,61
374,62	1540,07
374,83	1583,08
375,05	1634,28
375,26	1581,03
375,47	1646,57
375,69	1634,28
375,90	1568,74
376,11	1675,24
376,33	1660,90
376,54	1671,14
376,75	1642,47
376,97	1529,83
377,18	1738,73
377,40	1660,90
377,61	1658,85
377,82	1544,17
378,04	1572,84
378,25	1621,99
378,46	1626,09
378,68	1638,38
378,89	1535,98
379,10	1687,53
379,32	1626,09
379,53	1669,09
379,74	1656,81
379,96	1675,24
380,17	1597,42
380,38	1611,75
380,59	1607,66
380,81	1701,86
381,02	1531,88
381,23	1665,00
381,45	1693,67
381,66	1640,42
381,87	1636,33
382,09	1640,42
382,30	1617,90
382,51	1667,05
382,73	1771,49
382,94	1673,19
383,15	1734,63
383,37	1699,81
383,58	1765,35
383,79	1685,48
384,00	1853,41
384,22	1769,44
384,43	1712,10
384,64	1789,92
384,86	1689,57
385,07	1744,87
385,28	1712,10
385,50	1761,25
385,71	1779,68
385,92	1777,64
386,13	1820,64
386,35	1728,49
386,56	1748,97
386,77	1763,30
386,99	1673,19
387,20	1736,68
387,41	1767,40
387,63	1810,40
387,84	1783,78
388,05	1781,73
388,26	1818,60
388,48	1896,42
388,69	1826,79
388,90	1892,32
389,11	1796,07
389,33	1857,51
389,54	1839,08
389,75	1845,22
389,97	1843,17
390,18	1830,88
390,39	1826,79
390,60	1712,10
390,82	1820,64
391,03	1873,89
391,24	1859,56
391,45	1869,80
391,67	1892,32
391,88	1859,56
392,09	1834,98
392,31	1849,32
392,52	1861,60
392,73	1945,57
392,94	1861,60
393,16	1884,13
393,37	1843,17
393,58	1898,47
393,79	1933,28
394,01	1918,95
394,22	1935,33
394,43	1941,47
394,64	1918,95
394,86	1896,42
395,07	1890,28
395,28	2009,06
395,49	1945,57
395,71	1884,13
395,92	1884,13
396,13	1900,52
396,34	1914,85
396,56	2050,02
396,77	1978,34
396,98	1998,82
397,19	1984,48
397,40	2060,26
397,62	2002,91
397,83	2072,54
398,04	2025,44
398,25	2011,11
398,47	1951,71
398,68	1908,71
398,89	2086,88
399,10	2029,54
399,32	2099,17
399,53	1937,38
399,74	2052,06
399,95	2027,49
400,16	2090,98
400,38	2129,89
400,59	2015,20
400,80	2037,73
401,01	2156,51
401,22	2101,22
401,44	2078,69
401,65	2127,84
401,86	2117,60
402,07	2105,31
402,29	2019,30
402,50	2168,80
402,71	1982,43
402,92	2146,27
403,13	2150,37
403,35	2140,13
403,56	2166,75
403,77	2154,46
403,98	2207,71
404,19	2224,09
404,41	2129,89
404,62	2170,85
404,83	2215,90
405,04	2195,42
405,25	2263,01
405,47	2174,94
405,68	2213,85
405,89	2205,66
406,10	2146,27
406,31	2236,38
406,52	2174,94
406,74	2242,53
406,95	2176,99
407,16	2246,62
407,37	2332,64
407,58	2248,67
407,80	2279,39
408,01	2256,86
408,22	2185,18
408,43	2297,82
408,64	2308,06
408,85	2301,92
409,07	2285,53
409,28	2293,72
409,49	2293,72
409,70	2387,93
409,91	2322,40
410,12	2447,32
410,34	2381,79
410,55	2375,64
410,76	2267,10
410,97	2410,46
411,18	2478,04
411,39	2392,03
411,61	2482,14
411,82	2416,60
412,03	2385,88
412,24	2465,75
412,45	2416,60
412,66	2502,62
412,87	2453,47
413,09	2475,99
413,30	2527,19
413,51	2410,46
413,72	2506,71
413,93	2435,03
414,14	2527,19
414,35	2473,95
414,57	2475,99
414,78	2500,57
414,99	2535,39
415,20	2506,71
415,41	2514,91
415,62	2572,25
415,83	2527,19
416,05	2525,15
416,26	2637,78
416,47	2627,54
416,68	2691,03
416,89	2549,72
417,10	2568,15
417,31	2648,02
417,52	2654,17
417,74	2617,30
417,95	2613,21
418,16	2613,21
418,37	2578,39
418,58	2645,98
418,79	2701,27
419,00	2729,94
419,21	2598,87
419,43	2662,36
419,64	2609,11
419,85	2662,36
420,06	2631,64
420,27	2789,33
420,48	2719,70
420,69	2805,72
420,90	2746,33
421,11	2721,75
421,33	2707,41
421,54	2848,72
421,75	2688,98
421,96	2846,68
422,17	2818,00
422,38	2865,11
422,59	2854,87
422,80	2834,39
423,01	2781,14
423,22	2815,96
423,43	2854,87
423,65	2826,20
423,86	2914,26
424,07	2940,88
424,28	2926,55
424,49	2850,77
424,70	2844,63
424,91	2895,83
425,12	2803,67
425,33	3008,47
425,54	3063,76
425,75	2951,12
425,96	2961,36
426,18	3014,61
426,39	3043,28
426,60	3076,05
426,81	3041,23
427,02	3088,34
427,23	3061,71
427,44	3074,00
427,65	3153,87
427,86	2854,87
428,07	3078,10
428,28	3090,38
428,49	3098,58
428,70	3002,32
428,91	3127,25
429,13	3266,51
429,34	3139,54
429,55	3149,78
429,76	3160,02
429,97	3309,52
430,18	3205,07
430,39	3276,75
430,60	3231,69
430,81	3291,09
431,02	3254,22
431,23	3399,63
431,44	3182,54
431,65	3323,85
431,86	3395,53
432,07	3622,86
432,28	3450,83
432,49	3395,53
432,70	3368,91
432,91	3545,03
433,12	3448,78
433,33	3405,77
433,55	3420,11
433,76	3659,72
433,97	3469,26
434,18	3704,78
434,39	3502,03
434,60	3579,85
434,81	3491,79
435,02	3545,03
435,23	3680,20
435,44	3669,96
435,65	3688,39
435,86	3672,01
436,07	3770,31
436,28	3680,20
436,49	3645,38
436,70	3731,40
436,91	3753,93
437,12	3850,18
437,33	3854,28
437,54	4014,02
437,75	3768,26
437,96	3872,71
438,17	3987,40
438,38	3839,94
438,59	3971,01
438,80	3850,18
439,01	3936,20
439,22	4003,78
439,43	4065,22
439,64	3977,16
439,85	3862,47
440,06	4220,86
440,27	4155,33
440,48	4120,51
440,69	4134,85
440,90	4151,23
441,11	3995,59
441,32	4089,79
441,53	4140,99
441,74	4136,90
441,95	4245,44
442,16	4120,51
442,37	4079,55
442,58	4249,54
442,79	4030,40
443,00	4237,25
443,21	4188,10
443,42	4349,89
443,63	4327,36
443,84	4198,34
444,05	4440,00
444,26	4399,04
444,47	4235,20
444,68	4292,54
444,89	4341,69
445,10	4368,32
445,31	4454,33
445,52	4454,33
445,73	4452,28
445,94	4310,97
446,14	4306,88
446,35	4800,44
446,56	4489,15
446,77	4456,38
446,98	4618,17
447,19	4579,26
447,40	4755,38
447,61	4454,33
447,82	4661,18
448,03	4616,12
448,24	4577,21
448,45	4558,78
448,66	4755,38
448,87	4835,25
449,08	4771,77
449,29	4839,35
449,50	4704,18
449,71	4759,48
449,92	4792,25
450,13	4878,26
450,33	4736,95
450,54	4726,71
450,75	4718,52
450,96	4868,02
451,17	4847,54
451,38	4941,75
451,59	4775,86
451,80	4964,28
452,01	4939,70
452,22	4964,28
452,43	4779,96
452,64	5003,19
452,85	4812,73
453,06	5044,15
453,27	5062,58
453,47	5078,96
453,68	4882,36
453,89	4999,09
454,10	5105,59
454,31	5046,20
454,52	5234,61
454,73	5124,02
454,94	5228,46
455,15	5320,62
455,36	5291,95
455,57	5347,25
455,78	5455,79
455,98	5226,42
456,19	5304,24
456,40	5339,05
456,61	5347,25
456,82	5574,57
457,03	5380,01
457,24	5654,44
457,45	5361,58
457,66	5621,67
457,87	5588,91
458,07	5662,63
458,28	5537,71
458,49	5611,43
458,70	5810,09
458,91	5674,92
459,12	5967,78
459,33	5883,81
459,54	5904,29
459,75	6043,56
459,95	6018,98
460,16	5965,73
460,37	6135,71
460,58	5894,05
460,79	6254,50
461,00	6043,56
461,21	6229,92
461,42	6193,06
461,62	5984,16
461,83	6293,41
462,04	6307,74
462,25	6422,43
462,46	6274,98
462,67	6330,27
462,88	6299,55
463,09	6762,39
463,29	6133,67
463,50	6369,18
463,71	6545,31
463,92	6576,03
464,13	6666,14
464,34	6514,59
464,55	6975,38
464,75	7075,73
464,96	6987,67
465,17	6842,26
465,38	6926,23
465,59	6993,81
465,80	6838,17
466,01	7088,02
466,21	7149,46
466,42	7411,60
466,63	7028,63
466,84	7366,54
467,05	7387,02
467,26	7077,78
467,46	7045,01
467,67	7301,01
467,88	7466,89
468,09	7643,02
468,30	7442,32
468,51	7557,00
468,71	7464,85
468,92	7817,10
469,13	7987,08
469,34	8093,57
469,55	8120,20
469,76	8054,66
469,96	8122,24
470,17	8300,42
470,38	8152,96
470,59	8306,56
470,80	8144,77
471,01	7991,17
471,21	8494,97
471,42	8609,66
471,63	8632,19
471,84	8593,28
472,05	8630,14
472,25	8996,73
472,46	8849,27
472,67	8927,10
472,88	8695,68
473,09	9152,37
473,29	9402,22
473,50	9256,82
473,71	9338,74
473,92	9432,94
474,13	9670,51
474,34	9539,44
474,54	9858,92
474,75	9715,56
474,96	9846,63
475,17	9398,13
475,37	9678,70
475,58	9979,75
475,79	10446,69
476,00	10415,97
476,21	10217,32
476,41	10297,19
476,62	10712,92
476,83	10551,14
477,04	10551,14
477,25	10823,51
477,45	10766,17
477,66	11075,42
477,87	11132,76
478,08	10843,99
478,28	11151,19
478,49	11329,36
478,70	11540,30
478,91	11476,82
479,12	11700,05
479,32	11781,96
479,53	11890,51
479,74	11900,75
479,95	12496,71
480,15	12361,54
480,36	11976,52
480,57	11902,79
480,78	12197,70
480,98	12314,44
481,19	12232,52
481,40	12275,52
481,61	12881,72
481,81	12441,41
482,02	12662,59
482,23	12924,73
482,44	12836,67
482,64	12957,50
482,85	13391,67
483,06	13344,56
483,27	13270,84
483,47	13489,97
483,68	13358,90
483,89	13332,28
484,10	13649,71
484,30	13664,05
484,51	13909,80
484,72	13733,68
484,93	13879,08
485,13	13918,00
485,34	14094,12
485,55	14073,64
485,76	14020,39
485,96	14309,16
486,17	14864,16
486,38	14845,73
486,59	14591,78
486,79	14573,35
487,00	14784,29
487,21	15138,58
487,41	14935,84
487,62	14941,98
487,83	15136,54
488,04	15179,54
488,24	15193,88
488,45	14976,80
488,66	15175,45
488,86	15085,34
489,07	15331,09
489,28	15550,23
489,49	15806,22
489,69	15521,56
489,90	16017,16
490,11	15855,37
490,31	15841,04
490,52	15998,73
490,73	15826,70
490,93	16254,73
491,14	16142,09
491,35	16453,38
491,56	16410,37
491,76	16447,24
491,97	16477,96
492,18	16576,26
492,38	16686,85
492,59	16439,05
492,80	16588,55
493,00	16666,37
493,21	16770,82
493,42	16897,79
493,62	17020,67
493,83	17082,11
494,04	17243,90
494,25	17182,46
494,45	17336,06
494,66	16983,80
494,87	17008,38
495,07	17344,25
495,28	17553,14
495,49	17530,61
495,69	17501,94
495,90	17506,04
496,11	17274,62
496,31	17428,21
496,52	18069,23
496,73	17587,96
496,93	17872,62
497,14	17694,45
497,35	18036,46
497,55	17876,72
497,76	17843,95
497,97	17999,60
498,17	18122,48
498,38	18231,02
498,59	17968,88
498,79	18130,67
499,00	18220,78
499,20	18390,76
499,41	18583,27
499,62	18384,62
499,82	18503,40
500,03	18544,36
500,24	18396,90
500,44	18323,18
500,65	18398,95
500,86	18491,11
501,06	18566,88
501,27	18835,17
501,48	18740,96
501,68	18433,77
501,89	18880,22
502,09	18908,90
502,30	19154,65
502,51	19203,80
502,71	19003,10
502,92	19308,25
503,13	19062,49
503,33	18996,96
503,54	19283,67
503,74	19267,29
503,95	19930,83
504,16	19576,53
504,36	19736,27
504,57	19777,23
504,78	19635,92
504,98	19783,38
505,19	19695,32
505,39	20045,52
505,60	19928,78
505,81	19979,98
506,01	20276,94
506,22	20356,81
506,42	20213,45
506,63	20532,93
506,84	20098,77
507,04	20453,06
507,25	20494,02
507,45	20647,62
507,66	20543,17
507,87	20809,41
508,07	20641,48
508,28	20850,37
508,48	20825,79
508,69	21018,30
508,90	20831,94
509,10	21296,83
509,31	21452,47
509,51	21399,23
509,72	21513,91
509,93	21223,10
510,13	21429,94
510,34	21634,74
510,54	21751,48
510,75	21913,27
510,95	21753,52
511,16	22197,93
511,37	21663,41
511,57	21827,25
511,78	21970,61
511,98	22212,27
512,19	22281,90
512,39	22455,98
512,60	22329,00
512,81	22388,39
513,01	22601,38
513,22	22587,05
513,42	22642,34
513,63	22763,17
513,83	22949,54
514,04	22970,02
514,25	22922,91
514,45	23342,75
514,66	23398,04
514,86	23137,95
515,07	23533,21
515,27	23912,08
515,48	23944,85
515,68	23697,05
515,89	23940,75
516,09	23684,76
516,30	24299,15
516,51	24379,02
516,71	24657,54
516,92	24166,03
517,12	24206,99
517,33	24575,62
517,53	24399,50
517,74	24538,76
517,94	24540,81
518,15	24524,43
518,35	25009,79
518,56	24813,19
518,76	24901,25
518,97	24575,62
519,18	24776,33
519,38	25151,10
519,59	25038,47
519,79	25013,89
520,00	25339,52
520,20	25454,20
520,41	25273,98
520,61	24948,36
520,82	25536,12
521,02	25691,77
521,23	25898,61
521,43	25919,09
521,64	26211,95
521,84	26017,40
522,05	26377,84
522,25	26109,55
522,46	26240,62
522,66	26383,98
522,87	26629,74
523,07	26764,90
523,28	26736,23
523,48	26633,83
523,69	26721,90
523,89	26902,12
524,10	26834,53
524,30	27358,81
524,51	27221,60
524,71	26959,46
524,92	27172,45
525,12	26814,05
525,33	27215,46
525,53	27387,49
525,74	27655,77
525,94	27330,14
526,15	27711,07
526,35	27569,76
526,56	27528,80
526,76	27780,70
526,97	27903,57
527,17	27680,35
527,38	28143,19
527,58	28300,88
527,78	27997,78
527,99	28180,05
528,19	28104,28
528,40	28493,39
528,60	28438,09
528,81	28667,47
529,01	28714,57
529,22	28558,92
529,42	29068,87
529,63	28730,95
529,83	28808,78
530,04	28980,81
530,24	29242,95
530,44	29189,70
530,65	29138,50
530,85	29464,13
531,06	30000,69
531,26	29668,92
531,47	29605,44
531,67	29724,22
531,88	29877,82
532,08	30283,31
532,29	30037,56
532,49	30121,52
532,69	30735,92
532,90	30516,78
533,10	30821,93
533,31	30719,53
533,51	30445,10
533,72	30602,80
533,92	30500,40
534,12	31112,74
534,33	30727,72
534,53	31127,08
534,74	31315,49
534,94	31417,89
535,15	31553,05
535,35	31745,56
535,55	31659,55
535,76	31843,87
535,96	31835,67
536,17	31413,79
536,37	31651,36
536,58	32048,66
536,78	32495,12
536,98	32429,59
537,19	32587,28
537,39	32906,76
537,60	32624,14
537,80	32523,79
538,00	32585,23
538,21	32775,69
538,41	32585,23
538,62	32716,30
538,82	33076,74
539,02	32927,24
539,23	33437,19
539,43	32800,27
539,64	33187,33
539,84	33537,54
540,04	33713,66
540,25	33283,59
540,45	33111,56
540,66	33435,14
540,86	33932,79
541,06	33875,45
541,27	34086,39
541,47	33832,44
541,68	34010,62
541,88	34141,69
542,08	33863,16
542,29	33787,39
542,49	33857,02
542,69	33983,99
542,90	34526,71
543,10	34510,32
543,31	34491,89
543,51	34921,96
543,71	35167,72
543,92	35206,63
544,12	35065,32
544,32	34964,97
544,53	34622,96
544,73	35335,65
544,93	35309,03
545,14	35628,51
545,34	35436,00
545,55	35542,50
545,75	35775,97
545,95	35845,60
546,16	36179,42
546,36	35941,85
546,56	35749,34
546,77	35489,25
546,97	35835,36
547,17	35843,55
547,38	35638,75
547,58	36369,88
547,78	36459,99
547,99	36607,44
548,19	36840,91
548,39	36709,84
548,60	37352,90
548,80	37008,84
549,00	36746,70
549,21	36924,88
549,41	36994,51
549,61	37080,52
549,82	36773,33
550,02	37291,46
550,22	37309,89
550,43	37072,33
550,63	37469,64
550,83	37860,80
551,04	38006,20
551,24	38323,64
551,44	38147,51
551,65	37307,85
551,85	37615,04
552,05	37668,29
552,26	37885,37
552,46	37885,37
552,66	37770,69
552,87	38391,22
553,07	38344,12
553,27	38307,26
553,47	38450,61
553,68	38749,62
553,88	39183,79
554,08	39085,48
554,29	39364,01
554,49	38966,70
554,69	39716,26
554,90	39675,30
555,10	39036,33
555,30	39552,42
555,50	39495,08
555,71	39204,27
555,91	39513,51
556,11	39499,17
556,32	40301,98
556,52	39933,34
556,72	39439,78
556,92	39546,28
557,13	39454,12
557,33	39675,30
557,53	39349,67
557,74	39531,94
557,94	39769,51
558,14	40082,84
558,34	39929,25
558,55	39771,55
558,75	40439,19
558,95	40414,62
559,16	40580,50
559,36	40867,22
559,56	40428,95
559,76	40932,75
559,97	40750,48
560,17	40494,49
560,37	40809,87
560,57	40574,36
560,78	40529,30
560,98	40795,54
561,18	40777,11
561,38	40955,28
561,59	41432,46
561,79	41743,75
561,99	41928,06
562,19	41956,74
562,40	41993,60
562,60	41719,17
562,80	41733,51
563,00	41878,91
563,21	41975,17
563,41	41893,25
563,61	41667,97
563,81	41946,50
564,02	41710,98
564,22	41559,43
564,42	41813,38
564,62	41907,58
564,83	42014,08
565,03	42206,59
565,23	42691,96
565,43	42569,08
565,63	42276,22
565,84	42315,13
566,04	42503,54
566,24	42395,00
566,44	42694,00
566,65	42210,68
566,85	42317,18
567,05	42190,20
567,25	42601,85
567,45	42685,81
567,66	42995,06
567,86	43396,46
568,06	43470,18
568,26	43644,26
568,46	43523,43
568,67	44172,64
568,87	43267,44
569,07	43214,19
569,27	43283,82
569,47	43038,06
569,68	43091,31
569,88	43294,06
570,08	43101,55
570,28	42777,97
570,48	43509,10
570,69	43406,70
570,89	44094,82
571,09	44469,59
571,29	44213,60
571,49	44588,38
571,70	44287,32
571,90	44713,30
572,10	43865,44
572,30	43947,36
572,50	44307,80
572,71	43644,26
572,91	43961,70
573,11	43746,66
573,31	44023,14
573,51	44240,22
573,71	44371,29
573,92	44389,72
574,12	44709,21
574,32	44852,56
574,52	45126,99
574,72	45577,54
574,92	45172,05
575,13	45616,46
575,33	45299,02
575,53	44967,25
575,73	45061,46
575,93	44488,03
576,13	44690,77
576,33	44713,30
576,54	45174,09
576,74	44799,32
576,94	45083,98
577,14	45301,07
577,34	45819,20
577,54	46099,78
577,75	46402,88
577,95	46933,30
578,15	46693,69
578,35	46267,71
578,55	46828,85
578,75	46359,87
578,95	45739,33
579,16	45737,29
579,36	45636,94
579,56	45862,21
579,76	45774,15
579,96	45929,80
580,16	45942,08
580,36	46564,67
580,56	46662,97
580,77	46742,84
580,97	47115,57
581,17	47168,82
581,37	47691,05
581,57	47877,41
581,77	47332,65
581,97	47600,94
582,17	47297,84
582,38	47373,61
582,58	46959,92
582,78	47134,00
582,98	47211,82
583,18	46888,24
583,38	46916,92
583,58	46972,21
583,78	46945,59
583,98	47215,92
584,18	48133,41
584,39	48573,72
584,59	48717,08
584,79	48514,33
584,99	48551,20
585,19	49208,59
585,39	48436,51
585,59	48239,90
585,79	48413,98
585,99	48452,89
586,19	48033,06
586,39	47926,56
586,60	48379,17
586,80	48047,39
587,00	48385,31
587,20	48889,11
587,40	48880,92
587,60	49003,80
587,80	49235,22
588,00	49679,63
588,20	50085,12
588,40	50056,45
588,60	49642,76
588,80	49739,02
589,00	49450,25
589,21	49610,00
589,41	49751,30
589,61	49845,51
589,81	49079,57
590,01	49399,05
590,21	49110,29
590,41	49468,69
590,61	49376,53
590,81	49632,52
591,01	49534,22
591,21	50513,15
591,41	50892,02
591,61	51408,11
591,81	51244,27
592,01	51647,72
592,21	51565,81
592,41	50951,41
592,61	51223,79
592,82	51221,75
593,02	51209,46
593,22	50267,39
593,42	50517,25
593,62	50703,61
593,82	50853,11
594,02	51172,60
594,22	50308,35
594,42	50824,44
594,62	51389,68
594,82	51643,63
595,02	52335,84
595,22	52597,98
595,42	52616,41
595,62	52411,62
595,82	53013,72
596,02	52839,64
596,22	52405,47
596,42	52374,75
596,62	52841,69
596,82	52319,46
597,02	52341,99
597,22	52180,20
597,42	52145,38
597,62	51805,42
597,82	52456,67
598,02	52579,55
598,22	52835,55
598,42	53204,18
598,62	53564,62
598,82	53759,18
599,02	54088,90
599,22	54389,95
599,42	54695,10
599,62	54021,32
599,82	54789,31
600,02	54113,48
600,22	54265,03
600,42	53664,97
600,62	53955,78
600,82	54353,09
601,02	53736,65
601,22	54160,58
601,42	53947,59
601,62	54301,89
601,82	54187,21
602,02	54754,49
602,22	54914,23
602,42	55645,36
602,62	55329,97
602,82	55768,24
603,02	56013,99
603,22	55821,48
603,42	56054,95
603,62	55768,24
603,82	55954,60
604,02	56325,28
604,22	55348,40
604,42	55735,47
604,62	55393,46
604,82	55438,51
605,02	55356,60
605,21	55727,28
605,41	55481,52
605,61	55686,32
605,81	55850,16
606,01	55989,42
606,21	56614,05
606,41	56964,25
606,61	57205,91
606,81	57156,76
607,01	57349,27
607,21	57777,29
607,41	57298,07
607,61	56931,48
607,81	56964,25
608,01	57216,15
608,21	56908,96
608,41	56503,46
608,61	56913,05
608,80	57078,94
609,00	56540,32
609,20	56972,44
609,40	56814,75
609,60	57210,01
609,80	57326,74
610,00	57896,08
610,20	57730,19
610,40	57877,64
610,60	58311,81
610,80	58096,78
611,00	58987,64
611,20	58827,90
611,39	58551,43
611,59	57769,10
611,79	58637,44
611,99	57951,37
612,19	57765,01
612,39	57429,14
612,59	57867,40
612,79	57934,99
612,99	57320,60
613,19	57934,99
613,38	58219,66
613,58	57674,90
613,78	58553,47
613,98	58674,30
614,18	58827,90
614,38	58854,53
614,58	58408,07
614,78	59057,27
614,98	59147,39
615,18	59272,31
615,37	58788,99
615,57	59247,74
615,77	59358,33
615,97	58473,60
616,17	58705,02
616,37	58365,06
616,57	58420,36
616,77	58066,06
616,96	59053,18
617,16	59315,32
617,36	58209,42
617,56	58397,83
617,76	59186,30
617,96	58883,20
618,16	58770,56
618,35	58895,49
618,55	59202,68
618,75	59714,67
618,95	59042,94
619,15	59421,81
619,35	59784,30
619,55	58958,97
619,75	59974,76
619,94	59460,72
620,14	59645,04
620,34	59272,31
620,54	59294,84
620,74	59118,71
620,94	59219,06
621,13	59339,89
621,33	59585,65
621,53	59257,98
621,73	59540,60
621,93	58989,69
622,13	58832,00
622,32	59554,93
622,52	59737,20
622,72	60075,12
622,92	60019,82
623,12	59722,86
623,32	59384,95
623,51	59819,12
623,71	59921,52
623,91	60216,43
624,11	59798,64
624,31	59505,78
624,51	60028,01
624,70	59956,33
624,90	59475,06
625,10	59432,05
625,30	59548,79
625,50	60007,53
625,69	59458,68
625,89	59704,43
626,09	59505,78
626,29	59460,72
626,49	59911,28
626,68	60136,55
626,88	59927,66
627,08	60339,30
627,28	59827,31
627,48	59933,81
627,67	60154,99
627,87	60034,16
628,07	59716,72
628,27	59835,50
628,47	60003,44
628,66	59694,19
628,86	59704,43
629,06	59286,65
629,26	59661,43
629,46	60003,44
629,65	59839,60
629,85	59774,06
630,05	60056,68
630,25	59892,85
630,45	59405,43
630,64	60492,90
630,84	59477,11
631,04	59645,04
631,24	60519,52
631,43	60191,85
631,63	59671,67
631,83	60259,43
632,03	59704,43
632,22	60503,14
632,42	60044,40
632,62	60263,53
632,82	59700,34
633,01	59577,46
633,21	60425,32
633,41	59716,72
633,61	59845,74
633,81	60089,45
634,00	59972,72
634,20	60087,40
634,40	59485,30
634,60	59872,37
634,79	60146,79
634,99	60320,87
635,19	59733,10
635,38	59671,67
635,58	59655,28
635,78	59792,50
635,98	59915,37
636,17	59884,65
636,37	60302,44
636,57	60318,82
636,77	60179,56
636,96	60083,31
637,16	60404,84
637,36	59774,06
637,56	59978,86
637,75	59921,52
637,95	59765,87
638,15	60392,55
638,34	59233,40
638,54	60183,66
638,74	59995,24
638,94	59702,38
639,13	60144,75
639,33	59741,30
639,53	59905,13
639,72	60146,79
639,92	60058,73
640,12	60007,53
640,32	60021,87
640,51	60310,63
640,71	59481,20
640,91	59352,18
641,10	60241,00
641,30	60054,64
641,50	60449,89
641,69	60052,59
641,89	59683,95
642,09	60339,30
642,29	59847,79
642,48	59757,68
642,68	59503,73
642,88	60351,59
643,07	60343,40
643,27	60679,27
643,47	60167,27
643,66	59667,57
643,86	59980,91
644,06	60259,43
644,25	59960,43
644,45	60372,07
644,65	60327,02
644,84	60382,31
645,04	60597,35
645,24	60197,99
645,43	60353,64
645,63	59944,05
645,83	60281,96
646,02	60343,40
646,22	60273,77
646,42	60023,92
646,61	60355,69
646,81	60816,48
647,01	60359,78
647,20	60867,68
647,40	59890,80
647,60	60679,27
647,79	60060,78
647,99	60451,94
648,19	60001,39
648,38	59792,50
648,58	60484,71
648,78	60468,33
648,97	60013,68
649,17	59702,38
649,36	60628,07
649,56	60503,14
649,76	60433,51
649,95	60603,49
650,15	60578,92
650,35	60562,53
650,54	60777,57
650,74	60707,94
650,93	60429,41
651,13	61033,56
651,33	60605,54
651,52	60810,34
651,72	60789,86
651,92	60597,35
652,11	60367,97
652,31	60099,69
652,50	60189,80
652,70	60707,94
652,90	60849,25
653,09	60720,23
653,29	61142,11
653,49	60986,46
653,68	61002,85
653,88	61002,85
654,07	61070,43
654,27	60908,64
654,47	60497,00
654,66	60601,44
654,86	61201,50
655,05	60822,62
655,25	60564,58
655,45	60615,78
655,64	60404,84
655,84	60945,50
656,03	60806,24
656,23	60752,99
656,42	61056,09
656,62	61129,82
656,82	60978,27
657,01	60931,17
657,21	61086,81
657,40	60763,23
657,60	61047,90
657,80	60714,08
657,99	60714,08
658,19	60857,44
658,38	61054,04
658,58	61215,83
658,77	61289,56
658,97	61269,08
659,17	61052,00
659,36	61228,12
659,56	60963,93
659,75	60845,15
659,95	61361,24
660,14	61842,51
660,34	61480,02
660,53	61979,73
660,73	61750,35
660,93	61703,25
661,12	61303,90
661,32	61684,82
661,51	61346,90
661,71	61109,34
661,90	60990,56
662,10	61043,80
662,29	61500,50
662,49	61015,13
662,68	60920,93
662,88	61822,03
663,08	61645,91
663,27	61791,31
663,47	61109,34
663,66	61215,83
663,86	61273,18
664,05	61078,62
664,25	61125,72
664,44	61627,48
664,64	61293,66
664,83	61375,58
665,03	61138,01
665,22	61082,72
665,42	61846,61
665,61	61338,71
665,81	61269,08
666,00	61650,00
666,20	61711,44
666,39	61502,55
666,59	61351,00
666,78	61537,36
666,98	61650,00
667,17	61469,78
667,37	61672,53
667,56	61230,17
667,76	62448,71
667,95	61609,04
668,15	61772,88
668,34	61320,28
668,54	61269,08
668,73	61779,03
668,93	61129,82
669,12	61604,95
669,32	61316,18
669,51	61727,83
669,71	61760,59
669,90	62219,34
670,10	61555,80
670,29	61946,96
670,49	61639,76
670,68	61652,05
670,88	62184,52
671,07	61557,84
671,27	61570,13
671,46	62026,83
671,66	62061,64
671,85	62018,64
672,05	61729,87
672,24	61934,67
672,44	61711,44
672,63	61715,54
672,83	61506,65
673,02	61437,01
673,21	62024,78
673,41	61766,74
673,60	62075,98
673,80	61781,07
673,99	61953,10
674,19	61645,91
674,38	61453,40
674,58	61449,30
674,77	62338,12
674,97	61523,03
675,16	61944,91
675,35	61758,55
675,55	61357,14
675,74	61596,76
675,94	61303,90
676,13	61719,63
676,33	61789,27
676,52	62221,39
676,71	61879,38
676,91	61723,73
677,10	61701,20
677,30	61676,63
677,49	61625,43
677,69	61953,10
677,88	61332,57
678,07	61725,78
678,27	62207,05
678,46	61592,66
678,66	61875,28
678,85	62223,43
679,05	61803,60
679,24	61518,93
679,43	61490,26
679,63	61588,56
679,82	61219,93
680,02	61031,52
680,21	61111,39
680,40	61928,53
680,60	61334,62
680,79	61469,78
680,99	61432,92
681,18	61422,68
681,37	61842,51
681,57	61004,89
681,76	61680,72
681,96	61236,31
682,15	60793,95
682,34	61559,89
682,54	61805,65
682,73	61150,30
682,93	61123,68
683,12	60834,91
683,31	61584,47
683,51	60953,69
683,70	61744,21
683,89	61768,79
684,09	61277,27
684,28	61056,09
684,48	60933,21
684,67	60961,89
684,86	60968,03
685,06	61412,44
685,25	61023,32
685,44	61060,19
685,64	60767,33
685,83	61127,77
686,03	60691,55
686,22	60707,94
686,41	60914,78
686,61	60505,19
686,80	60214,38
686,99	60566,63
687,19	60044,40
687,38	60253,29
687,57	60507,24
687,77	60447,85
687,96	60664,93
688,15	60331,11
688,35	60468,33
688,54	60028,01
688,73	60087,40
688,93	60111,98
689,12	60736,61
689,31	59921,52
689,51	60392,55
689,70	60279,91
689,89	60556,39
690,09	60752,99
690,28	60216,43
690,47	60030,06
690,67	60357,74
690,86	60408,93
691,05	60308,58
691,25	59806,83
691,44	60023,92
691,63	60236,90
691,83	60218,47
692,02	59655,28
692,21	60034,16
692,41	59493,49
692,60	60267,62
692,79	59958,38
692,99	60085,36
693,18	59847,79
693,37	59683,95
693,56	59081,85
693,76	59528,31
693,95	59700,34
694,14	59405,43
694,34	59061,37
694,53	59204,73
694,72	59298,94
694,92	59241,59
695,11	59812,98
695,30	59358,33
695,49	59446,39
695,69	59452,53
695,88	58938,49
696,07	59653,23
696,27	59268,22
696,46	59436,15
696,65	59516,02
696,84	58754,18
697,04	59069,56
697,23	58698,88
697,42	58674,30
697,61	59171,96
697,81	59118,71
698,00	59122,81
698,19	59057,27
698,39	59044,99
698,58	58389,64
698,77	59323,51
698,96	58504,32
699,16	59217,02
699,35	58582,15
699,54	58832,00
699,73	58039,43
699,93	59341,94
700,12	58352,77
700,31	58494,08
700,50	58395,78
700,70	58426,50
700,89	57844,88
701,08	58166,41
701,27	57834,64
701,47	58201,22
701,66	57855,12
701,85	57353,36
702,04	58289,29
702,24	57621,65
702,43	58135,69
702,62	57857,17
702,81	57674,90
703,00	57574,55
703,20	57949,32
703,39	57742,48
703,58	57955,47
703,77	58492,04
703,97	57515,15
704,16	57744,53
704,35	57314,45
704,54	57341,08
704,73	57527,44
704,93	57619,60
705,12	57433,24
705,31	57320,60
705,50	57545,87
705,69	57902,22
705,89	57779,34
706,08	57693,33
706,27	57058,46
706,46	57175,19
706,65	56538,27
706,85	56403,11
707,04	56911,00
707,23	56911,00
707,42	57099,42
707,61	56915,10
707,81	56708,25
708,00	57261,21
708,19	57224,34
708,38	56933,53
708,57	56556,70
708,77	56628,38
708,96	56403,11
709,15	56704,16
709,34	56517,79
709,53	56886,43
709,72	56743,07
709,92	56851,61
710,11	56198,31
710,30	56562,85
710,49	55966,89
710,68	56317,09
710,87	56122,54
711,07	55839,92
711,26	56943,77
711,45	56554,66
711,64	55841,96
711,83	56237,22
712,02	56059,05
712,22	56478,88
712,41	56005,80
712,60	55674,03
712,79	56013,99
712,98	55700,65
713,17	55432,37
713,37	55671,98
713,56	56001,71
713,75	55784,62
713,94	55405,75
714,13	55927,98
714,32	55725,23
714,51	55698,61
714,70	55329,97
714,90	55280,82
715,09	55790,76
715,28	54678,72
715,47	55229,62
715,66	55526,58
715,85	55219,38
716,04	54752,44
716,24	54916,28
716,43	55356,60
716,62	54549,70
716,81	55061,69
717,00	54840,51
717,19	54686,91
717,38	54785,21
717,57	54406,34
717,76	54979,77
717,96	55035,06
718,15	54680,77
718,34	55325,88
718,53	54623,42
718,72	54455,49
718,91	54815,93
719,10	54179,01
719,29	54418,63
719,48	54254,79
719,67	54590,66
719,87	54222,02
720,06	54359,23
720,25	53777,61
720,44	54123,72
720,63	54019,27
720,82	53785,80
721,01	53710,03
721,20	53832,91
721,39	53474,51
721,58	53906,63
721,77	53400,79
721,96	53447,89
722,16	53417,17
722,35	53169,36
722,54	53163,22
722,73	53026,01
722,92	52638,94
723,11	52794,59
723,30	53292,24
723,49	52874,46
723,68	53210,32
723,87	53026,01
724,06	53261,52
724,25	53046,49
724,44	52849,88
724,63	53155,03
724,82	53042,39
725,02	53150,93
725,21	52837,59
725,40	52659,42
725,59	53191,89
725,78	52483,30
725,97	52315,36
726,16	52747,48
726,35	52405,47
726,54	52471,01
726,73	51879,14
726,92	52462,82
727,11	52387,04
727,30	52610,27
727,49	52335,84
727,68	52047,08
727,87	52311,27
728,06	52925,66
728,25	52278,50
728,44	52319,46
728,63	52083,94
728,82	52192,48
729,01	52167,91
729,20	52194,53
729,39	52593,89
729,58	52028,65
729,77	52042,98
729,96	52219,11
730,15	51987,69
730,34	52063,46
730,53	51571,95
730,72	51948,78
730,91	51825,90
731,10	52645,08
731,29	51858,66
731,48	52032,74
731,67	52184,29
731,86	52401,38
732,05	52761,82
732,24	52305,12
732,43	52378,85
732,62	52014,31
732,81	51950,82
733,00	52884,70
733,19	51731,69
733,38	51782,89
733,57	52122,85
733,76	52210,92
733,95	52286,69
734,14	52258,02
734,33	51799,27
734,52	51963,11
734,71	52094,18
734,90	52004,07
735,09	52514,01
735,28	52016,36
735,47	52182,24
735,66	51811,56
735,85	51819,75
736,04	51741,93
736,23	52012,26
736,42	52565,21
736,61	51809,51
736,80	52112,61
736,99	51612,91
737,18	51866,86
737,37	52200,68
737,56	52229,35
737,74	51805,42
737,93	51621,10
738,12	51537,13
738,31	51879,14
738,50	51279,09
738,69	51092,72
738,88	51336,43
739,07	51311,86
739,26	51537,13
739,45	51487,98
739,64	51653,87
739,83	51295,47
740,02	51371,25
740,21	51705,07
740,40	51815,66
740,58	51295,47
740,77	51752,17
740,96	51637,48
741,15	51336,43
741,34	51311,86
741,53	51518,70
741,72	51186,93
741,91	51928,30
742,10	51418,35
742,29	51090,68
742,48	51574,00
742,67	51844,33
742,85	51438,83
743,04	51283,19
743,23	51016,95
743,42	51127,54
743,61	51188,98
743,80	51215,60
743,99	50799,86
744,18	51248,37
744,37	51066,10
744,56	50973,94
744,74	50613,50
744,93	50984,18
745,12	50930,93
745,31	51352,82
745,50	51391,73
745,69	51188,98
745,88	50648,32
746,07	50404,61
746,25	50736,38
746,44	50818,30
746,63	50447,61
746,82	50654,46
747,01	50119,94
747,20	50433,28
747,39	50597,12
747,58	50574,59
747,76	50255,11
747,95	50541,82
748,14	50328,83
748,33	50382,08
748,52	50427,13
748,71	50181,38
748,90	50234,63
749,08	50083,08
749,27	50472,19
749,46	50498,81
749,65	50654,46
749,84	50033,92
750,03	50341,12
750,22	50173,19
750,40	49427,73
750,59	49835,27
750,78	49708,30
750,97	49532,17
751,16	49734,92
751,35	50183,43
751,53	49407,25
751,72	49890,57
751,91	49716,49
752,10	49521,93
752,29	49784,07
752,48	49890,57
752,66	49837,32
752,85	49724,68
753,04	49859,85
753,23	49480,97
753,42	49808,65
753,60	49685,77
753,79	49331,47
753,98	49294,61
754,17	49173,78
754,36	49032,47
754,54	49247,50
754,73	48915,73
754,92	48594,20
755,11	49249,55
755,30	49161,49
755,48	48827,67
755,67	49155,35
755,86	48895,25
756,05	48659,74
756,24	48661,79
756,42	48690,46
756,61	47945,00
756,80	48874,77
756,99	48794,90
757,18	48405,79
757,36	49163,54
757,55	48776,47
757,74	48682,27
757,93	49175,83
758,12	48989,46
758,30	48751,90
758,49	48839,96
758,68	48706,84
758,87	48944,41
759,05	48231,71
759,24	48608,54
759,43	48223,52
759,62	48260,38
759,80	48715,03
759,99	47727,91
760,18	47930,66
760,37	47754,54
760,55	48162,08
760,74	48074,02
760,93	47867,17
761,12	48010,53
761,30	47422,76
761,49	47566,12
761,68	47590,70
761,87	47519,02
762,05	47381,80
762,24	47932,71
762,43	47881,51
762,62	47521,07
762,80	47504,68
762,99	48184,61
763,18	47576,36
763,37	47576,36
763,55	47625,51
763,74	47111,47
763,93	47119,66
764,12	47408,43
764,30	46558,52
764,49	47244,59
764,68	46806,33
764,86	47009,07
765,05	47390,00
765,24	47021,36
765,43	47058,23
765,61	46748,98
765,80	46939,44
765,99	47234,35
766,17	46501,18
766,36	46323,01
766,55	46570,81
766,74	46302,53
766,92	46398,78
767,11	46583,10
767,30	46523,71
767,48	46433,60
767,67	46452,03
767,86	45923,65
768,04	46177,60
768,23	45905,22
768,42	45643,08
768,60	46286,14
768,79	45962,56
768,98	45563,21
769,17	45790,53
769,35	45995,33
769,54	46148,93
769,73	45528,39
769,91	45479,24
770,10	45579,59
770,29	45401,42
770,47	45409,61
770,66	45526,35
770,85	45190,48
771,03	45397,32
771,22	45516,11
771,41	45061,46
771,59	45028,69
771,78	45385,04
771,97	44658,01
772,15	44985,68
772,34	45462,86
772,53	44578,14
772,71	44731,73
772,90	44535,13
773,08	44588,38
773,27	44307,80
773,46	44713,30
773,64	44348,76
773,83	44510,55
774,02	44377,43
774,20	44330,33
774,39	44524,89
774,58	44164,45
774,76	44459,35
774,95	44215,65
775,13	44189,02
775,32	44109,15
775,51	43996,51
775,69	43744,61
775,88	43677,03
776,07	43662,69
776,25	43195,76
776,44	43677,03
776,62	43627,88
776,81	43431,27
777,00	43535,72
777,18	43310,44
777,37	43513,19
777,56	43349,35
777,74	43783,52
777,93	43478,38
778,11	42851,70
778,30	42716,53
778,49	42769,78
778,67	42919,28
778,86	43140,46
779,04	42956,14
779,23	42851,70
779,42	43275,63
779,60	42741,11
779,79	42722,68
779,97	42626,42
780,16	42245,50
780,34	42540,41
780,53	42911,09
780,72	42612,09
780,90	42296,70
781,09	42067,33
781,27	41608,58
781,46	41825,67
781,65	42132,86
781,83	42128,77
782,02	42306,94
782,20	41446,79
782,39	42020,22
782,57	41837,95
782,76	41766,27
782,95	42071,42
783,13	41764,23
783,32	41590,15
783,50	41923,97
783,69	41659,78
783,87	41706,88
784,06	41696,64
784,24	41467,27
784,43	41614,72
784,62	41463,18
784,80	41151,88
784,99	41287,05
785,17	40564,12
785,36	41100,68
785,54	40912,27
785,73	40924,56
785,91	40398,23
786,10	40207,77
786,28	40701,33
786,47	40492,44
786,65	40435,10
786,84	40084,89
787,02	40115,61
787,21	40576,40
787,40	40899,98
787,58	40863,12
787,77	40078,75
787,95	40938,90
788,14	40189,34
788,32	40637,84
788,51	40242,59
788,69	40758,67
788,88	40658,32
789,06	40263,07
789,25	40469,91
789,43	40119,71
789,62	40476,05
789,80	40074,65
789,99	40353,18
790,17	40125,85
790,36	40453,53
790,54	40355,22
790,73	39771,55
790,91	39880,10
791,10	39835,04
791,28	39966,11
791,47	39896,48
791,65	40125,85
791,84	39640,48
792,02	40080,80
792,21	40117,66
792,39	39703,97
792,58	39658,91
792,76	39855,52
792,94	40111,52
793,13	39746,98
793,31	39822,75
793,50	40054,17
793,68	39720,35
793,87	40422,81
794,05	40107,42
794,24	40314,26
794,42	40400,28
794,61	40078,75
794,79	39869,86
794,98	39589,28
795,16	39761,31
795,34	40293,79
795,53	39693,73
795,71	40158,62
795,90	39898,53
796,08	40134,04
796,27	40428,95
796,45	39921,05
796,64	39808,42
796,82	40105,37
797,00	40228,25
797,19	39370,15
797,37	40037,79
797,56	39654,82
797,74	39904,67
797,93	39708,07
798,11	39910,82
798,29	40256,92
798,48	39579,04
798,66	40179,10
798,85	39921,05
799,03	40029,60
799,22	40164,76
799,40	39757,22
799,58	39677,35
799,77	40002,97
799,95	39921,05
800,14	39923,10
800,32	39421,35
800,50	39910,82
800,69	39597,48
800,87	39597,48
801,06	39849,38
801,24	39376,30
801,42	39822,75
801,61	39953,82
801,79	39523,75
801,98	39951,77
802,16	39777,70
802,34	39757,22
802,53	39622,05
802,71	39364,01
802,90	39482,79
803,08	39376,30
803,26	39394,73
803,45	39118,25
803,63	39075,24
803,82	39187,88
804,00	39241,13
804,18	39300,52
804,37	39263,66
804,55	39034,28
804,73	39499,17
804,92	39062,96
805,10	38804,91
805,28	39132,59
805,47	38825,39
805,65	39071,15
805,84	38348,21
806,02	38397,37
806,20	38782,38
806,39	38010,30
806,57	38596,02
806,75	38579,64
806,94	38544,82
807,12	38346,17
807,30	38313,40
807,49	38331,83
807,67	38286,78
807,85	37991,87
808,04	37733,82
808,22	38000,06
808,40	37922,24
808,59	38188,47
808,77	37856,70
808,95	37400,01
809,14	37541,32
809,32	37735,87
809,50	37762,50
809,69	37647,81
809,87	37600,71
810,05	37770,69
810,24	37623,23
810,42	37393,86
810,60	37346,76
810,79	37774,78
810,97	37158,34
811,15	37330,37
811,34	37051,85
811,52	36646,35
811,70	36906,44
811,88	36918,73
812,07	36935,12
812,25	37166,54
812,43	36701,65
812,62	36324,82
812,80	36836,81
812,98	36666,83
813,17	36740,56
813,35	36709,84
813,53	36474,32
813,71	36232,66
813,90	36177,37
814,08	35499,49
814,26	36353,49
814,45	36003,29
814,63	35382,76
814,81	35900,89
814,99	35765,73
815,18	35986,91
815,36	35755,49
815,54	35321,32
815,72	35575,27
815,91	35358,18
816,09	35171,82
816,27	35108,33
816,46	35321,32
816,64	35073,51
816,82	34876,91
817,00	35452,39
817,19	35157,48
817,37	35464,67
817,55	34987,50
817,73	34778,61
817,92	34960,87
818,10	34803,18
818,28	34725,36
818,46	34692,59
818,65	34389,49
818,83	34446,83
819,01	34346,48
819,19	34223,61
819,37	34233,85
819,56	33990,14
819,74	34313,72
819,92	34035,19
820,10	33844,73
820,29	34051,58
820,47	33867,26
820,65	33875,45
820,83	33773,05
821,02	33568,26
821,20	33568,26
821,38	33306,12
821,56	33578,50
821,74	33502,72
821,93	33297,92
822,11	33256,96
822,29	33291,78
822,47	33230,34
822,65	33046,02
822,84	33164,81
823,02	32722,44
823,20	33031,69
823,38	32689,68
823,56	32470,54
823,75	32673,29
823,93	32667,15
824,11	33052,17
824,29	32847,37
824,47	32851,47
824,66	32253,46
824,84	32402,96
825,02	32179,73
825,20	32218,64
825,38	32468,50
825,56	32173,59
825,75	32024,09
825,93	31999,51
826,11	31833,63
826,29	31823,39
826,47	31626,78
826,65	31872,54
826,84	31897,11
827,02	32015,90
827,20	32081,43
827,38	32081,43
827,56	31868,44
827,74	31348,26
827,93	31845,91
828,11	31415,84
828,29	31989,27
828,47	31497,76
828,65	31671,84
828,83	31352,35
829,02	31307,30
829,20	31161,89
829,38	31286,82
829,56	31110,69
829,74	31092,26
829,92	31370,79
830,10	31008,29
830,28	31333,92
830,47	30987,82
830,65	31270,43
830,83	30854,70
831,01	30885,42
831,19	30582,32
831,37	30647,85
831,55	30699,05
831,73	30709,29
831,92	30484,01
832,10	30656,04
832,28	30842,41
832,46	30228,02
832,64	30172,72
832,82	30467,63
833,00	30463,54
833,18	30514,73
833,36	30520,88
833,55	30404,14
833,73	30221,87
833,91	30473,78
834,09	29843,00
834,27	29853,24
834,45	29914,68
834,63	30051,89
834,81	29857,34
834,99	29953,59
835,17	29955,64
835,36	29902,39
835,54	29826,62
835,72	29943,35
835,90	29941,30
836,08	29615,68
836,26	29775,42
836,44	29521,47
836,62	29998,65
836,80	29525,57
836,98	29513,28
837,16	29621,82
837,34	29720,12
837,52	29369,92
837,71	29654,59
837,89	29498,94
838,07	29521,47
838,25	29378,11
838,43	29371,97
838,61	29462,08
838,79	29005,38
838,97	29161,03
839,15	28882,50
839,33	29029,96
839,51	28806,73
839,69	28948,04
839,87	28763,72
840,05	28667,47
840,23	28898,89
840,41	29218,37
840,59	28726,86
840,77	28632,65
840,95	28448,33
841,13	28122,71
841,31	28409,42
841,49	28184,15
841,67	28227,15
841,86	28147,28
842,04	27858,52
842,22	28001,88
842,40	28550,73
842,58	27758,17
842,76	28100,18
842,94	28005,97
843,12	28161,62
843,30	27887,19
843,48	28200,53
843,66	27999,83
843,84	27594,33
844,02	27829,85
844,20	27989,59
844,38	27496,03
844,56	28173,91
844,74	27862,61
844,92	27819,61
845,10	28040,79
845,28	27774,55
845,46	27678,30
845,64	28204,63
845,82	27610,71
846,00	27412,06
846,18	27485,79
846,36	27442,78
846,54	27446,88
846,72	27453,02
846,90	27821,66
847,07	27324,00
847,25	27448,93
847,43	26803,82
847,61	27289,18
847,79	26932,84
847,97	27573,85
848,15	26771,05
848,33	27141,73
848,51	26971,75
848,69	27033,19
848,87	27012,71
849,05	27203,17
849,23	26857,06
849,41	26740,33
849,59	26932,84
849,77	26678,89
849,95	26863,21
850,13	26893,93
850,31	26470,00
850,49	26607,21
850,67	26214,00
850,85	26017,40
851,02	26818,15
851,20	26377,84
851,38	25998,96
851,56	26199,66
851,74	26277,49
851,92	26177,14
852,10	26127,99
852,28	26306,16
852,46	26115,70
852,64	26347,12
852,82	26031,73
853,00	26168,94
853,18	26224,24
853,36	26316,40
853,53	25915,00
853,71	25867,89
853,89	25908,85
854,07	25992,82
854,25	26037,87
854,43	25620,09
854,61	25833,08
854,79	25464,44
854,97	25878,13
855,15	25767,54
855,32	25212,54
855,50	25130,62
855,68	25042,56
855,86	25417,34
856,04	25314,94
856,22	25435,77
856,40	25362,04
856,58	25337,47
856,76	25171,58
856,93	25126,53
857,11	25134,72
857,29	25063,04
857,47	24786,57
857,65	25114,24
857,83	25308,80
858,01	24915,59
858,19	24794,76
858,36	24411,79
858,54	24870,53
858,72	24721,03
858,90	24901,25
859,08	25142,91
859,26	24835,72
859,44	24718,98
859,61	24792,71
859,79	24598,15
859,97	24706,70
860,15	24757,89
860,33	24520,33
860,51	24866,44
860,69	24438,41
860,86	24546,95
861,04	24661,64
861,22	24086,16
861,40	24272,53
861,58	24479,37
861,76	24196,75
861,93	24407,69
862,11	24198,80
862,29	24022,67
862,47	23778,97
862,65	23490,20
862,83	23910,04
863,00	23846,55
863,18	23672,47
863,36	23504,54
863,54	23477,91
863,72	23858,84
863,89	23754,39
864,07	23486,11
864,25	23754,39
864,43	23422,62
864,61	23379,61
864,78	23191,20
864,96	23428,76
865,14	23676,57
865,32	23301,79
865,50	23373,47
865,67	23381,66
865,85	23731,86
866,03	23201,44
866,21	23410,33
866,39	22978,21
866,56	22972,07
866,74	22974,11
866,92	22886,05
867,10	22888,10
867,28	22826,66
867,45	22693,54
867,63	22656,68
867,81	22732,45
867,99	22777,51
868,16	22496,94
868,34	22433,45
868,52	22963,87
868,70	22748,84
868,87	22505,13
869,05	22466,22
869,23	22386,35
869,41	22464,17
869,59	22324,91
869,76	22058,67
869,94	21888,69
870,12	22226,60
870,30	22111,92
870,47	21952,18
870,65	22027,95
870,83	21888,69
871,01	22148,78
871,18	21956,27
871,36	21845,68
871,54	22130,35
871,71	21692,08
871,89	21806,77
872,07	21411,51
872,25	21503,67
872,42	21339,83
872,60	21495,48
872,78	21372,60
872,96	21247,68
873,13	20938,43
873,31	20983,49
873,49	20915,90
873,66	20897,47
873,84	20866,75
874,02	20899,52
874,20	20623,05
874,37	20713,16
874,55	20965,06
874,73	20893,38
874,90	20491,98
875,08	20268,75
875,26	20580,04
875,44	20399,82
875,61	20637,38
875,79	20215,50
875,97	20418,25
876,14	20369,10
876,32	20262,60
876,50	20610,76
876,67	20188,88
876,85	20487,88
877,03	20086,48
877,20	20088,53
877,38	19742,42
877,56	20051,66
877,73	20111,05
877,91	20139,72
878,09	20047,57
878,26	19896,02
878,44	20301,51
878,62	20201,16
878,79	20283,08
878,97	19855,06
879,15	19666,64
879,32	19664,60
879,50	19609,30
879,68	19633,88
879,85	19433,18
880,03	19343,06
880,21	19640,02
880,38	19525,33
880,56	19437,27
880,74	19244,76
880,91	19654,36
881,09	19441,37
881,27	19377,88
881,44	19570,39
881,62	19840,72
881,79	19619,54
881,97	19345,11
882,15	19080,92
882,32	19271,39
882,50	19642,07
882,68	19285,72
882,85	19334,87
883,03	19226,33
883,21	19334,87
883,38	19140,32
883,56	19267,29
883,73	19611,35
883,91	19484,37
884,09	19740,37
884,26	19345,11
884,44	19279,58
884,61	19166,94
884,79	19183,32
884,97	19476,18
885,14	19273,43
885,32	18933,47
885,49	19465,94
885,67	19136,22
885,85	19275,48
886,02	19060,45
886,20	19068,64
886,37	19267,29
886,55	19222,23
886,73	19625,68
886,90	19365,59
887,08	19160,80
887,25	19283,67
887,43	19279,58
887,60	19275,48
887,78	19171,04
887,96	19334,87
888,13	19502,81
888,31	19402,46
888,48	19230,43
888,66	19312,35
888,83	19343,06
889,01	19060,45
889,19	19361,50
889,36	19187,42
889,54	19197,66
889,71	19314,39
889,89	19181,28
890,06	19312,35
890,24	18974,43
890,41	19420,89
890,59	19236,57
890,77	19369,69
890,94	19201,76
891,12	18937,57
891,29	19119,84
891,47	19095,26
891,64	19029,73
891,82	19191,52
891,99	19320,54
892,17	19183,32
892,34	19341,02
892,52	19275,48
892,69	19236,57
892,87	19449,56
893,04	19406,55
893,22	19302,11
893,40	19646,16
893,57	19433,18
893,75	19422,94
893,92	19304,15
894,10	19330,78
894,27	19132,12
894,45	19347,16
894,62	19134,17
894,80	19582,68
894,97	19283,67
895,15	19013,34
895,32	19044,06
895,50	19506,90
895,67	19068,64
895,85	19089,12
896,02	19269,34
896,20	19310,30
896,37	19035,87
896,55	19082,97
896,72	18908,90
896,89	19056,35
897,07	19246,81
897,24	18999,01
897,42	19093,21
897,59	19119,84
897,77	19007,20
897,94	19195,61
898,12	19222,23
898,29	19175,13
898,47	18669,28
898,64	18992,86
898,82	18890,46
898,99	18978,53
899,17	19183,32
899,34	19154,65
899,52	19345,11
899,69	19062,49
899,86	18904,80
900,04	18917,09
900,21	18865,89
900,39	18743,01
900,56	18740,96
900,74	18808,54
900,91	18716,39
901,09	18474,73
901,26	18753,25
901,43	18401,00
901,61	18790,11
901,78	18241,26
901,96	18575,08
902,13	18687,71
902,31	18548,45
902,48	18644,71
902,65	18831,07
902,83	18261,74
903,00	18570,98
903,18	18781,92
903,35	18468,58
903,53	18380,52
903,70	18341,61
903,87	18300,65
904,05	18296,55
904,22	18112,24
904,40	18327,27
904,57	18228,97
904,74	18052,84
904,92	18136,81
905,09	17813,23
905,27	18218,73
905,44	18001,65
905,61	18089,71
905,79	18239,21
905,96	17929,97
906,13	18079,47
906,31	18177,77
906,48	17862,38
906,66	17846,00
906,83	17858,29
907,00	17733,36
907,18	17667,83
907,35	17596,15
907,53	17411,83
907,70	17610,48
907,87	17571,57
908,05	17422,07
908,22	17590,00
908,39	17407,73
908,57	17530,61
908,74	17237,75
908,91	17409,78
909,09	17374,97
909,26	17123,07
909,44	17340,15
909,61	17331,96
909,78	17225,47
909,96	17213,18
910,13	17334,01
910,30	17123,07
910,48	16736,00
910,65	17026,81
910,82	16719,62
911,00	16905,98
911,17	16811,78
911,34	16791,30
911,52	16772,86
911,69	16566,02
911,86	16723,71
912,04	16617,22
912,21	16740,10
912,38	16570,12
912,56	16416,52
912,73	16342,79
912,90	16230,15
913,08	16271,11
913,25	16312,07
913,42	16168,71
913,59	16348,93
913,77	15963,92
913,94	15925,00
914,11	16031,50
914,29	16070,41
914,46	16125,71
914,63	15888,14
914,81	15765,26
914,98	15789,84
915,15	15843,09
915,32	15978,25
915,50	15560,47
915,67	15658,77
915,84	15447,83
916,02	15591,19
916,19	15570,71
916,36	15492,88
916,53	15427,35
916,71	14987,04
916,88	15236,89
917,05	15058,71
917,23	14976,80
917,40	15003,42
917,57	14989,08
917,74	14944,03
917,92	14976,80
918,09	14860,06
918,26	14901,02
918,43	14933,79
918,61	14901,02
918,78	14565,15
918,95	14554,91
919,12	14591,78
919,30	14640,93
919,47	14612,26
919,64	14358,31
919,81	14393,12
919,99	14356,26
920,16	14333,73
920,33	14137,13
920,50	14042,92
920,68	14219,05
920,85	14239,53
921,02	14094,12
921,19	13944,62
921,36	14059,31
921,54	13717,29
921,71	14047,02
921,88	13762,35
922,05	14016,30
922,23	14001,96
922,40	13793,07
922,57	13750,06
922,74	13778,73
922,91	13807,41
923,09	13428,53
923,26	13449,01
923,43	13520,69
923,60	13354,80
923,77	13225,78
923,95	13328,18
924,12	13389,62
924,29	13473,59
924,46	13383,48
924,63	12951,35
924,81	13057,85
924,98	12924,73
925,15	12965,69
925,32	12916,54
925,49	12912,44
925,67	12574,53
925,84	12783,42
926,01	12633,92
926,18	12891,96
926,35	12742,46
926,52	12431,17
926,70	12564,29
926,87	12304,20
927,04	12363,59
927,21	12308,29
927,38	12191,56
927,55	12154,69
927,73	12060,49
927,90	12158,79
928,07	11931,47
928,24	11910,99
928,41	12001,10
928,58	11872,07
928,76	11849,55
928,93	11724,62
929,10	11855,69
929,27	11884,36
929,44	11640,65
929,61	11695,95
929,78	11626,32
929,96	11560,78
930,13	11437,91
930,30	11601,74
930,47	11372,37
930,64	11290,45
930,81	11515,73
930,98	11265,88
931,15	11097,94
931,33	11241,30
931,50	11165,53
931,67	11083,61
931,84	11083,61
932,01	10942,30
932,18	10800,99
932,35	10882,91
932,52	10624,86
932,69	10688,35
932,87	10688,35
933,04	10835,80
933,21	10751,84
933,38	10725,21
933,55	10563,42
933,72	10508,13
933,89	10563,42
934,06	10213,22
934,23	10362,72
934,40	10317,67
934,58	10217,32
934,75	10102,63
934,92	9957,22
935,09	10076,01
935,26	9914,22
935,43	9844,59
935,60	9920,36
935,77	9719,66
935,94	9566,06
936,11	9662,32
936,28	9561,97
936,45	9256,82
936,62	9246,58
936,79	9144,18
936,97	9113,46
937,14	8963,96
937,31	8816,51
937,48	8834,94
937,65	8716,16
937,82	8626,04
937,99	8673,15
938,16	8529,79
938,33	8458,11
938,50	8388,48
938,67	8142,72
938,84	8152,96
939,01	8124,29
939,18	7796,62
939,35	7864,20
939,52	7628,68
939,69	7561,10
939,86	7509,90
940,03	7458,70
940,20	7425,93
940,37	7405,46
940,54	7112,60
940,71	7126,93
940,88	7176,08
941,05	7004,05
941,22	7010,20
941,39	6909,85
941,56	6954,90
941,73	6856,60
941,91	6729,63
942,08	6733,72
942,25	6713,24
942,42	6602,65
942,59	6555,55
942,76	6539,16
942,93	6434,72
943,09	6170,53
943,26	6367,13
943,43	6133,67
943,60	6272,93
943,77	6160,29
943,94	6043,56
944,11	6029,22
944,28	6127,52
944,45	6061,99
944,62	6006,69
944,79	5992,36
944,96	5998,50
945,13	5871,53
945,30	5791,66
945,47	5857,19
945,64	5853,09
945,81	5918,63
945,98	5916,58
946,15	5736,36
946,32	5912,49
946,49	5932,97
946,66	5926,82
946,83	5775,27
947,00	5916,58
947,17	5799,85
947,34	5779,37
947,51	5785,51
947,68	5703,59
947,85	5947,30
948,02	5789,61
948,18	5859,24
948,35	5779,37
948,52	5775,27
948,69	5889,96
948,86	5795,75
949,03	5734,31
949,20	5662,63
949,37	5844,90
949,54	5830,57
949,71	5828,52
949,88	5803,94
950,05	5906,34
950,22	5840,81
950,38	5762,98
950,55	5791,66
950,72	5928,87
950,89	5902,25
951,06	6068,13
951,23	5797,80
951,40	5978,02
951,57	5783,46
951,74	5783,46
951,91	6049,70
952,08	5822,38
952,24	6066,08
952,41	5742,50
952,58	5930,92
952,75	5844,90
952,92	5875,62
953,09	5998,50
953,26	5791,66
953,43	5906,34
953,59	5877,67
953,76	5887,91
953,93	5861,29
954,10	6000,55
954,27	5971,88
954,44	6066,08
954,61	6145,95
954,78	6029,22
954,94	6039,46
955,11	6197,15
955,28	6057,89
955,45	5961,64
955,62	5969,83
955,79	5947,30
955,96	6041,51
956,12	6182,82
956,29	6006,69
956,46	6121,38
956,63	6041,51
956,80	6086,56
956,97	5906,34
957,13	5982,12
957,30	6102,95
957,47	6090,66
957,64	6088,61
957,81	5963,68
957,98	6045,60
958,14	6127,52
958,31	6000,55
958,48	5887,91
958,65	6111,14
958,82	6068,13
958,99	6088,61
959,15	6107,04
959,32	6213,54
959,49	5943,21
959,66	6096,80
959,83	6193,06
959,99	6145,95
960,16	6094,76
960,33	6023,08
960,50	6121,38
960,67	6188,96
960,83	6078,37
961,00	6010,79
961,17	6010,79
961,34	6129,57
961,51	6064,04
961,67	6145,95
961,84	6188,96
962,01	6148,00
962,18	6002,60
962,35	6057,89
962,51	6057,89
962,68	6082,47
962,85	5873,57
963,02	5967,78
963,18	5773,22
963,35	6002,60
963,52	6025,12
963,69	5916,58
963,86	5894,05
964,02	5902,25
964,19	6012,84
964,36	5937,06
964,53	5810,09
964,69	5881,77
964,86	5859,24
965,03	5990,31
965,20	5986,21
965,36	6057,89
965,53	6018,98
965,70	5939,11
965,87	5900,20
966,03	5892,01
966,20	5892,01
966,37	5898,15
966,53	5914,53
966,70	5994,40
966,87	5830,57
967,04	5922,73
967,20	5658,54
967,37	5803,94
967,54	5849,00
967,71	6035,36
967,87	5861,29
968,04	5906,34
968,21	5834,66
968,37	5871,53
968,54	5726,12
968,71	5867,43
968,88	5760,94
969,04	5758,89
969,21	5959,59
969,38	5701,54
969,54	5697,45
969,71	5771,18
969,88	5711,78
970,04	5726,12
970,21	5590,95
970,38	5545,90
970,55	5513,13
970,71	5619,63
970,88	5656,49
971,05	5574,57
971,21	5547,95
971,38	5443,50
971,55	5670,83
971,71	5459,88
971,88	5509,04
972,05	5640,11
972,21	5687,21
972,38	5619,63
972,55	5685,16
972,71	5517,23
972,88	5609,39
973,05	5363,63
973,21	5429,17
973,38	5496,75
973,55	5480,36
973,71	5480,36
973,88	5525,42
974,05	5382,06
974,21	5545,90
974,38	5367,73
974,54	5447,60
974,71	5494,70
974,88	5384,11
975,04	5449,64
975,21	5320,62
975,38	5357,49
975,54	5289,90
975,71	5425,07
975,88	5337,01
976,04	5279,66
976,21	5400,49
976,37	5279,66
976,54	5246,90
976,71	5250,99
976,87	5310,38
977,04	5281,71
977,20	5308,34
977,37	5312,43
977,54	5230,51
977,70	5283,76
977,87	5121,97
978,03	5289,90
978,20	5142,45
978,37	5183,41
978,53	5275,57
978,70	5185,46
978,86	5052,34
979,03	5078,96
979,20	5060,53
979,36	5210,03
979,53	5173,17
979,69	5019,57
979,86	5214,13
980,03	5109,68
980,19	5197,74
980,36	5089,20
980,52	4972,47
980,69	5019,57
980,85	5056,43
981,02	5121,97
981,19	4962,23
981,35	5035,96
981,52	4784,06
981,68	4982,71
981,85	5064,63
982,01	4941,75
982,18	4865,97
982,34	4784,06
982,51	4904,89
982,68	4745,14
982,84	4892,60
983,01	4849,59
983,17	4859,83
983,34	4865,97
983,50	4919,22
983,67	4841,40
983,83	4831,16
984,00	4808,63
984,16	4722,62
984,33	4812,73
984,49	4788,15
984,66	4722,62
984,83	4716,47
984,99	4612,03
985,16	4691,90
985,32	4538,30
985,49	4710,33
985,65	4695,99
985,82	4677,56
985,98	4614,07
986,15	4640,70
986,31	4657,08
986,48	4704,18
986,64	4673,46
986,81	4528,06
986,97	4556,73
987,14	4550,59
987,30	4659,13
987,47	4560,83
987,63	4497,34
987,80	4501,44
987,96	4593,59
988,13	4470,72
988,29	4560,83
988,46	4485,05
988,62	4618,17
988,79	4468,67
988,95	4392,89
989,11	4356,03
989,28	4495,29
989,44	4407,23
989,61	4399,04
989,77	4437,95
989,94	4399,04
990,10	4382,65
990,27	4247,49
990,43	4270,01
990,60	4388,80
990,76	4356,03
990,93	4403,13
991,09	4421,56
991,25	4233,15
991,42	4399,04
991,58	4401,08
991,75	4345,79
991,91	4257,73
992,08	4284,35
992,24	4325,31
992,41	4206,53
992,57	4384,70
992,73	4165,57
992,90	4257,73
993,06	4179,90
993,23	4147,14
993,39	4227,01
993,56	4237,25
993,72	4251,58
993,88	4120,51
994,05	4063,17
994,21	4208,58
994,38	4091,84
994,54	4194,24
994,70	4126,66
994,87	4169,66
995,03	4063,17
995,20	4091,84
995,36	4216,77
995,52	4104,13
995,69	4089,79
995,85	3911,62
996,02	3915,72
996,18	3950,53
996,34	3938,24
996,51	3948,48
996,67	3911,62
996,84	3958,72
997,00	4009,92
997,16	3893,19
997,33	3962,82
997,49	3977,16
997,65	3737,54
997,82	3807,17
997,98	3932,10
998,15	3960,77
998,31	3809,22
998,47	3844,04
998,64	3856,33
998,80	3882,95
998,96	3854,28
999,13	3844,04
999,29	3862,47
999,45	3870,66
999,62	3813,32
999,78	3778,50
999,94	3807,17
1000,11	3796,93
1000,27	3786,69
1000,44	3833,80
1000,60	3745,73
1000,76	3690,44
1000,93	3665,86
1001,09	3721,16
1001,25	3706,82
1001,42	3647,43
1001,58	3710,92
1001,74	3629,00
1001,90	3672,01
1002,07	3645,38
1002,23	3624,90
1002,39	3530,70
1002,56	3620,81
1002,72	3676,10
1002,88	3565,51
1003,05	3712,97
1003,21	3719,11
1003,37	3547,08
1003,54	3469,26
1003,70	3655,62
1003,86	3624,90
1004,03	3547,08
1004,19	3485,64
1004,35	3612,62
1004,51	3450,83
1004,68	3407,82
1004,84	3467,21
1005,00	3493,83
1005,17	3354,57
1005,33	3444,68
1005,49	3626,95
1005,65	3620,81
1005,82	3344,33
1005,98	3516,36
1006,14	3325,90
1006,30	3514,31
1006,47	3510,22
1006,63	3465,16
1006,79	3383,24
1006,96	3325,90
1007,12	3211,22
1007,28	3471,31
1007,44	3436,49
1007,61	3481,55
1007,77	3354,57
1007,93	3317,71
1008,09	3321,81
1008,26	3313,61
1008,42	3332,05
1008,58	3323,85
1008,74	3293,13
1008,91	3252,17
1009,07	3194,83
1009,23	3391,44
1009,39	3239,89
1009,55	3172,30
1009,72	3289,04
1009,88	3194,83
1010,04	3160,02
1010,20	3217,36
1010,37	3200,98
1010,53	3196,88
1010,69	3141,58
1010,85	3121,10
1011,01	3207,12
1011,18	3108,82
1011,34	3149,78
1011,50	3168,21
1011,66	3129,30
1011,82	3137,49
1011,99	3071,95
1012,15	3092,43
1012,31	3033,04
1012,47	3133,39
1012,63	3047,38
1012,80	2998,23
1012,96	3147,73
1013,12	3129,30
1013,28	3024,85
1013,44	3149,78
1013,61	2951,12
1013,77	3000,27
1013,93	2840,53
1014,09	3090,38
1014,25	2891,73
1014,41	2951,12
1014,58	2975,70
1014,74	2852,82
1014,90	2936,79
1015,06	3088,34
1015,22	2852,82
1015,38	2934,74
1015,55	2947,03
1015,71	3006,42
1015,87	2858,96
1016,03	2820,05
1016,19	2873,30
1016,35	2899,92
1016,52	3049,43
1016,68	2994,13
1016,84	2899,92
1017,00	2906,07
1017,16	2863,06
1017,32	2965,46
1017,48	2856,92
1017,65	2932,69
1017,81	2844,63
1017,97	2846,68
1018,13	2914,26
1018,29	2926,55
1018,45	2832,34
1018,61	2826,20
1018,77	2842,58
1018,93	2736,09
1019,10	2754,52
1019,26	2883,54
1019,42	2719,70
1019,58	2693,08
1019,74	2799,57
1019,90	2650,07
1020,06	2803,67
1020,22	2863,06
1020,38	2758,61
1020,55	2713,56
1020,71	2678,74
1020,87	2645,98
1021,03	2760,66
1021,19	2645,98
1021,35	2645,98
1021,51	2826,20
1021,67	2686,94
1021,83	2611,16
1021,99	2576,34
1022,15	2607,06
1022,31	2654,17
1022,48	2617,30
1022,64	2613,21
1022,80	2654,17
1022,96	2676,70
1023,12	2656,22
1023,28	2672,60
1023,44	2621,40
1023,60	2617,30
1023,76	2508,76
1023,92	2482,14
1024,08	2525,15
1024,24	2570,20
1024,40	2662,36
1024,56	2602,97
1024,72	2564,06
1024,88	2611,16
1025,04	2531,29
1025,21	2471,90
1025,37	2525,15
1025,53	2469,85
1025,69	2549,72
1025,85	2484,19
1026,01	2463,71
1026,17	2510,81
1026,33	2443,23
1026,49	2498,52
1026,65	2469,85
1026,81	2453,47
1026,97	2508,76
1027,13	2469,85
1027,29	2451,42
1027,45	2508,76
1027,61	2457,56
1027,77	2486,23
1027,93	2508,76
1028,09	2355,16
1028,25	2426,84
1028,41	2463,71
1028,57	2459,61
1028,73	2473,95
1028,89	2494,43
1029,05	2385,88
1029,21	2392,03
1029,37	2361,31
1029,53	2316,25
1029,69	2469,85
1029,85	2334,68
1030,01	2285,53
1030,17	2263,01
1030,33	2273,25
1030,49	2418,65
1030,65	2357,21
1030,81	2351,07
1030,97	2297,82
1031,13	2295,77
1031,29	2359,26
1031,45	2217,95
1031,60	2416,60
1031,76	2238,43
1031,92	2306,01
1032,08	2244,57
1032,24	2238,43
1032,40	2381,79
1032,56	2220,00
1032,72	2326,49
1032,88	2330,59
1033,04	2267,10
1033,20	2349,02
1033,36	2310,11
1033,52	2207,71
1033,68	2260,96
1033,84	2240,48
1034,00	2203,61
1034,16	2168,80
1034,32	2269,15
1034,47	2222,05
1034,63	2197,47
1034,79	2267,10
1034,95	2209,76
1035,11	2199,52
1035,27	2068,45
1035,43	2101,22
1035,59	2172,89
1035,75	2105,31
1035,91	2068,45
1036,07	2174,94
1036,22	2142,18
1036,38	2183,13
1036,54	2207,71
1036,70	2207,71
1036,86	2164,70
1037,02	2105,31
1037,18	2076,64
1037,34	2125,79
1037,50	2086,88
1037,65	2220,00
>>>>>End Processed Spectral Data<<<<<
